# Created by:        SpecsLab Prodigy, Version 4.74.2-r95700
#
# XY-Serializer Export Settings:
#   Comment Prefix:           #
#   Output Meta Data:         yes
#   Energy Axis:              Binding Energy
#   Count Rate:               Counts per Second
#   Separate Scan Data:       no
#   Separate Channel Data:    no
#   External Channel Data:    yes
#   Transmission Function:    no
#   Error Bar:                no
#   Operation Results:        yes
#   Time Zone Format:         UTC
#
# Group:             UHV Evap
#
# Region:            Si_2p
# Spectrum ID:       16
# Acquisition Date:  07/01/22 04:48:16 UTC
# Analysis Method:   XPS
# Analyzer:          Analyzer
# Analyzer Lens:     LargeArea:1.5kV
# Analyzer Slit:     4:3x20\B:open
# Scan Mode:         FixedAnalyzerTransmission
# Curves/Scan:       1
# Values/Curve:      201
# Dwell Time:        0.5
# Excitation Energy: 1486.71
# Binding Energy:    106.71
# Pass Energy:       30
# Bias Voltage:      -1
# Detector Voltage:  1800
# Eff. Workfunction: 4.498
# Source:            XR 50 MF (UXC1000)
# Comment:
# OrdinateRange:     [-18.000000, 18.000000]
#
# Cycle: 0
# Number of Scans: 100
#
# Cycle: 0, Curve: 0
# Acquisition Date: 07/01/22 04:48:16 UTC
#
# ColumnLabels: energy counts/s
#
106.71  4.9644328
106.61  4.976255
106.51  5.0512615
106.41  4.999133
106.31  5.0135821
106.21  5.0733258
106.11  5.1067096
106.01  5.0750804
105.91  5.1054781
105.81  5.0950389
105.71  5.09866
105.61  5.1071017
105.51  5.1090543
105.41  5.1163969
105.31  5.1697176
105.21  5.1851306
105.11  5.1368553
105.01  5.1770251
104.91  5.1743815
104.81  5.1952517
104.71  5.172216
104.61  5.2069212
104.51  5.1760985
104.41  5.2174257
104.31  5.2002418
104.21  5.2007713
104.11  5.2269054
104.01  5.2447281
103.91  5.2851599
103.81  5.2672954
103.71  5.2209996
103.61  5.2549518
103.51  5.2652165
103.41  5.2610216
103.31  5.2931942
103.21  5.2860162
103.11  5.3294058
103.01  5.3255843
102.91  5.327442
102.81  5.2890608
102.71  5.3154787
102.61  5.3371247
102.51  5.2796452
102.41  5.315902
102.31  5.3032077
102.21  5.2738139
102.11  5.3145364
102.01  5.2881615
101.91  5.2978834
101.81  5.3380383
101.71  5.4032638
101.61  5.3649616
101.51  5.3308942
101.41  5.3350306
101.31  5.3433511
101.21  5.3382296
101.11  5.3733086
101.01  5.3543234
100.91  5.3187064
100.81  5.3446507
100.71  5.3324173
100.61  5.3669968
100.51  5.4002935
100.41  5.3390169
100.31  5.3644729
100.21  5.4271728
100.11  5.4099108
100.01  5.4083407
99.91  5.3853077
99.81  5.4330201
99.71  5.4647322
99.61  5.4703187
99.51  5.4594527
99.41  5.4210875
99.31  5.4051491
99.21  5.4342775
99.11  5.4619276
99.01  5.4838965
98.91  5.4752696
98.81  5.4750947
98.71  5.4622327
98.61  5.4935696
98.51  5.5238666
98.41  5.5109509
98.31  5.5453102
98.21  5.5543173
98.11  5.5154186
98.01  5.5019362
97.91  5.5909245
97.81  5.5678127
97.71  5.5401215
97.61  5.5452092
97.51  5.5467936
97.41  5.5967439
97.31  5.5757731
97.21  5.5952783
97.11  5.6322135
97.01  5.6267864
96.91  5.5905462
96.81  5.5565135
96.71  5.5829467
96.61  5.6142539
96.51  5.5620108
96.41  5.5827914
96.31  5.6352299
96.21  5.6342501
96.11  5.616043
96.01  5.6428469
95.91  5.6412954
95.81  5.6114042
95.71  5.5758981
95.61  5.55647
95.51  5.5501895
95.41  5.5208711
95.31  5.5046485
95.21  5.5408802
95.11  5.5147351
95.01  5.4884492
94.91  5.4975595
94.81  5.5079646
94.71  5.4365322
94.61  5.4745778
94.51  5.4127776
94.41  5.383231
94.31  5.4056034
94.21  5.3684513
94.11  5.2959431
94.01  5.2748708
93.91  5.2765752
93.81  5.2030472
93.71  5.1807098
93.61  5.1875619
93.51  5.1656356
93.41  5.1362135
93.31  5.18172
93.21  5.1333822
93.11  5.0869059
93.01  5.0675236
92.91  5.062101
92.81  5.0752997
92.71  5.0333203
92.61  5.0270965
92.51  5.0134722
92.41  5.012135
92.31  4.9820054
92.21  4.9834718
92.11  4.9701429
92.01  4.9436237
91.91  4.9203104
91.81  4.9421708
91.71  4.913008
91.61  4.8652076
91.51  4.8677288
91.41  4.8702592
91.31  4.8867885
91.21  4.9195767
91.11  4.8968012
91.01  4.8659156
90.91  4.8846509
90.81  4.8531359
90.71  4.8264519
90.61  4.8367101
90.51  4.8288105
90.41  4.8095589
90.31  4.7795681
90.21  4.8154446
90.11  4.7836008
90.01  4.8039181
89.91  4.8119072
89.81  4.8509394
89.71  4.7975996
89.61  4.8194651
89.51  4.7939713
89.41  4.7890257
89.31  4.832756
89.21  4.8044449
89.11  4.8220657
89.01  4.7846353
88.91  4.8193443
88.81  4.8537398
88.71  4.8280759
88.61  4.8415968
88.51  4.8330574
88.41  4.8017241
88.31  4.7896687
88.21  4.7830644
88.11  4.7284179
88.01  4.7624525
87.91  4.786693
87.81  4.7567465
87.71  4.6991794
87.61  4.7284433
87.51  4.7620213
87.41  4.7499805
87.31  4.7430759
87.21  4.7349174
87.11  4.6887853
87.01  4.6787661
86.91  4.7050278
86.81  4.6758773
86.71  4.6903115

# Region:            O_1s
# Spectrum ID:       20
# Acquisition Date:  07/01/22 02:50:37 UTC
# Analysis Method:   XPS
# Analyzer:          Analyzer
# Analyzer Lens:     LargeArea:1.5kV
# Analyzer Slit:     4:3x20\B:open
# Scan Mode:         FixedAnalyzerTransmission
# Curves/Scan:       1
# Values/Curve:      169
# Dwell Time:        0.5
# Excitation Energy: 1486.71
# Binding Energy:    541.71
# Pass Energy:       30
# Bias Voltage:      -1
# Detector Voltage:  1800
# Eff. Workfunction: 4.498
# Source:            XR 50 MF (UXC1000)
# Comment:
# OrdinateRange:     [-18.000000, 18.000000]
#
# Cycle: 0
# Number of Scans: 70
#
# Cycle: 0, Curve: 0
# Acquisition Date: 07/01/22 02:50:37 UTC
#
# ColumnLabels: energy counts/s
#
541.71  3.3243665
541.61  3.310149
541.51  3.2796694
541.41  3.2932311
541.31  3.265226
541.21  3.232014
541.11  3.2596946
541.01  3.2659587
540.91  3.2368593
540.81  3.2319794
540.71  3.2004033
540.61  3.2081772
540.51  3.2294898
540.41  3.163152
540.31  3.1572792
540.21  3.143506
540.11  3.1339649
540.01  3.1340606
539.91  3.1443344
539.81  3.1267288
539.71  3.1239676
539.61  3.1067176
539.51  3.0112764
539.41  3.0846962
539.31  3.0715791
539.21  3.0667081
539.11  3.0376652
539.01  3.0262719
538.91  3.0108952
538.81  3.0302834
538.71  2.9987251
538.61  2.9841987
538.51  3.0230138
538.41  2.9992995
538.31  2.9964944
538.21  2.9627523
538.11  2.9192736
538.01  2.9389273
537.91  2.9297302
537.81  2.9437475
537.71  2.8897329
537.61  2.9288644
537.51  2.9180233
537.41  2.9042579
537.31  2.9190098
537.21  2.9112876
537.11  2.9000783
537.01  2.8919533
536.91  2.8579811
536.81  2.8852903
536.71  2.853855
536.61  2.8833303
536.51  2.8713858
536.41  2.8832849
536.31  2.8232743
536.21  2.8350156
536.11  2.8388683
536.01  2.8639256
535.91  2.8450787
535.81  2.849286
535.71  2.8421352
535.61  2.8431849
535.51  2.8640794
535.41  2.8653859
535.31  2.8563498
535.21  2.8604651
535.11  2.9074125
535.01  2.9154982
534.91  2.9242193
534.81  2.9874947
534.71  2.9591326
534.61  2.9952435
534.51  3.0417316
534.41  3.0930656
534.31  3.1190715
534.21  3.214272
534.11  3.2886053
534.01  3.321412
533.91  3.3707505
533.81  3.4370505
533.71  3.4680806
533.61  3.5606119
533.51  3.6259992
533.41  3.6850223
533.31  3.7465742
533.21  3.7985703
533.11  3.7646142
533.01  3.7426077
532.91  3.7368071
532.81  3.7087125
532.71  3.7326935
532.61  3.7489462
532.51  3.7996417
532.41  3.792002
532.31  3.7701533
532.21  3.7947546
532.11  3.8144573
532.01  3.8021537
531.91  3.8310884
531.81  3.8229701
531.71  3.8191701
531.61  3.7849384
531.51  3.7525525
531.41  3.6765196
531.31  3.6091897
531.21  3.5228741
531.11  3.4161209
531.01  3.3414943
530.91  3.2141037
530.81  3.1118785
530.71  3.042493
530.61  2.9987335
530.51  2.9138897
530.41  2.8528175
530.31  2.8404259
530.21  2.8017212
530.11  2.7946624
530.01  2.7284689
529.91  2.7451496
529.81  2.7215436
529.71  2.7327523
529.61  2.6599589
529.51  2.6752259
529.41  2.6780958
529.31  2.6229549
529.21  2.6550653
529.11  2.6029102
529.01  2.6134543
528.91  2.6363175
528.81  2.6402163
528.71  2.6505771
528.61  2.629301
528.51  2.575011
528.41  2.6257657
528.31  2.5859695
528.21  2.5787392
528.11  2.6307434
528.01  2.6361189
527.91  2.6316042
527.81  2.606612
527.71  2.5946163
527.61  2.6084852
527.51  2.6161851
527.41  2.6158135
527.31  2.6301412
527.21  2.6063715
527.11  2.6319027
527.01  2.6476638
526.91  2.6810516
526.81  2.6357628
526.71  2.6298095
526.61  2.6114851
526.51  2.598402
526.41  2.6469605
526.31  2.6283726
526.21  2.6160564
526.11  2.6110458
526.01  2.5975788
525.91  2.6316708
525.81  2.6269732
525.71  2.6531397
525.61  2.6356213
525.51  2.6130741
525.41  2.5890933
525.31  2.6104821
525.21  2.6350696
525.11  2.6131662
525.01  2.6473778
524.91  2.6305469

# Region:            N_1s
# Spectrum ID:       21
# Acquisition Date:  07/01/22 04:50:06 UTC
# Analysis Method:   XPS
# Analyzer:          Analyzer
# Analyzer Lens:     LargeArea:1.5kV
# Analyzer Slit:     4:3x20\B:open
# Scan Mode:         FixedAnalyzerTransmission
# Curves/Scan:       1
# Values/Curve:      171
# Dwell Time:        0.5
# Excitation Energy: 1486.71
# Binding Energy:    412
# Pass Energy:       30
# Bias Voltage:      -1
# Detector Voltage:  1800
# Eff. Workfunction: 4.498
# Source:            XR 50 MF (UXC1000)
# Comment:
# OrdinateRange:     [-18.000000, 18.000000]
#
# Cycle: 0
# Number of Scans: 100
#
# Cycle: 0, Curve: 0
# Acquisition Date: 07/01/22 04:50:06 UTC
#
# ColumnLabels: energy counts/s
#
412  2.9586596
411.9  2.9491638
411.8  2.9398532
411.7  2.9439486
411.6  2.939898
411.5  2.9710455
411.4  2.966446
411.3  2.9466845
411.2  2.9458195
411.1  2.9610859
411  2.9553803
410.9  2.9314818
410.8  2.9347543
410.7  2.9366668
410.6  2.9358663
410.5  2.9201622
410.4  2.9262618
410.3  2.9165455
410.2  2.9171717
410.1  2.9026359
410  2.8923961
409.9  2.9261797
409.8  2.914432
409.7  2.8957586
409.6  2.9115854
409.5  2.9514438
409.4  2.9271292
409.3  2.9389265
409.2  2.9267748
409.1  2.9168475
409  2.9227064
408.9  2.9038501
408.8  2.8923403
408.7  2.9267179
408.6  2.9547739
408.5  2.9105817
408.4  2.924019
408.3  2.9455012
408.2  2.9141949
408.1  2.9313585
408  2.9204554
407.9  2.9396856
407.8  2.9305149
407.7  2.947556
407.6  2.9234121
407.5  2.9297043
407.4  2.9236365
407.3  2.9550566
407.2  2.9301839
407.1  2.9543062
407  2.9782388
406.9  2.9694439
406.8  2.916506
406.7  2.9237339
406.6  2.9629881
406.5  2.9713298
406.4  2.9467643
406.3  2.9820148
406.2  2.9597304
406.1  2.9586838
406  2.9499798
405.9  2.9541208
405.8  2.9687387
405.7  2.968717
405.6  2.9740848
405.5  2.9709833
405.4  2.9686049
405.3  2.9378953
405.2  2.9572164
405.1  3.0132811
405  3.0073177
404.9  3.0081749
404.8  3.0224876
404.7  3.0277114
404.6  3.011338
404.5  2.983575
404.4  2.9845572
404.3  3.0181178
404.2  3.0044243
404.1  2.9958474
404  2.9986865
403.9  2.99815
403.8  3.009141
403.7  2.9901427
403.6  2.9784356
403.5  2.9687201
403.4  2.9878705
403.3  2.9943554
403.2  3.0187778
403.1  3.0042944
403  3.0038154
402.9  3.0234131
402.8  3.025698
402.7  3.0160636
402.6  3.0160738
402.5  3.0295433
402.4  2.9993616
402.3  3.0358526
402.2  3.0456507
402.1  3.0419027
402  3.0695218
401.9  3.0598524
401.8  3.0461963
401.7  3.091346
401.6  3.1007383
401.5  3.144422
401.4  3.1283253
401.3  3.2223399
401.2  3.2577031
401.1  3.3190893
401  3.3540465
400.9  3.3977734
400.8  3.4251071
400.7  3.4800549
400.6  3.4923431
400.5  3.5231046
400.4  3.5298291
400.3  3.5514312
400.2  3.5773898
400.1  3.5876926
400  3.5658889
399.9  3.5308006
399.8  3.4678512
399.7  3.4095109
399.6  3.3219297
399.5  3.254535
399.4  3.1362872
399.3  3.1065401
399.2  3.1030308
399.1  3.0645828
399  3.0200664
398.9  2.9947881
398.8  3.0188073
398.7  2.9736656
398.6  2.9578584
398.5  2.9651534
398.4  2.9240512
398.3  2.9140517
398.2  2.9258213
398.1  2.8926502
398  2.9451265
397.9  2.9112386
397.8  2.9210196
397.7  2.9246023
397.6  2.9504417
397.5  2.9121887
397.4  2.8989705
397.3  2.9084543
397.2  2.909757
397.1  2.8872576
397  2.9053569
396.9  2.9299753
396.8  2.9388788
396.7  2.9218147
396.6  2.9220233
396.5  2.9219484
396.4  2.8949947
396.3  2.9357375
396.2  2.9374756
396.1  2.9363722
396  2.9336409
395.9  2.9367075
395.8  2.9674843
395.7  2.9739021
395.6  2.9501031
395.5  2.9575317
395.4  2.9489033
395.3  2.9408367
395.2  2.9658515
395.1  2.9681906
395  2.9914937

# Region:            Si_2s
# Spectrum ID:       22
# Acquisition Date:  07/01/22 00:55:56 UTC
# Analysis Method:   XPS
# Analyzer:          Analyzer
# Analyzer Lens:     LargeArea:1.5kV
# Analyzer Slit:     4:3x20\B:open
# Scan Mode:         FixedAnalyzerTransmission
# Curves/Scan:       1
# Values/Curve:      101
# Dwell Time:        0.5
# Excitation Energy: 1486.71
# Binding Energy:    160
# Pass Energy:       30
# Bias Voltage:      -1
# Detector Voltage:  1800
# Eff. Workfunction: 4.498
# Source:            XR 50 MF (UXC1000)
# Comment:
# OrdinateRange:     [-18.000000, 18.000000]
#
# Cycle: 0
# Number of Scans: 50
#
# Cycle: 0, Curve: 0
# Acquisition Date: 07/01/22 00:55:56 UTC
#
# ColumnLabels: energy counts/s
#
160  4.6030838
159.9  4.6016112
159.8  4.6360897
159.7  4.6323314
159.6  4.6581598
159.5  4.6884991
159.4  4.6532805
159.3  4.6443749
159.2  4.5816861
159.1  4.5888478
159  4.5974658
158.9  4.6230522
158.8  4.6775767
158.7  4.7353632
158.6  4.6565152
158.5  4.6399902
158.4  4.6362746
158.3  4.6634109
158.2  4.6525856
158.1  4.5831126
158  4.6074887
157.9  4.618852
157.8  4.6385401
157.7  4.686066
157.6  4.6360983
157.5  4.7309148
157.4  4.7387612
157.3  4.7509505
157.2  4.6975642
157.1  4.7007635
157  4.6939418
156.9  4.6893542
156.8  4.6799452
156.7  4.7504904
156.6  4.6886538
156.5  4.6920458
156.4  4.7359515
156.3  4.6938622
156.2  4.6760639
156.1  4.6670605
156  4.7018996
155.9  4.7877863
155.8  4.7402862
155.7  4.6695021
155.6  4.6807425
155.5  4.7307675
155.4  4.7412139
155.3  4.6918015
155.2  4.747609
155.1  4.7951486
155  4.8003247
154.9  4.7290279
154.8  4.6802397
154.7  4.7644604
154.6  4.7399495
154.5  4.7605436
154.4  4.7652971
154.3  4.862417
154.2  4.821853
154.1  4.8023963
154  4.8762858
153.9  4.833113
153.8  4.8329271
153.7  4.81019
153.6  4.8093918
153.5  4.8068947
153.4  4.86428
153.3  4.9283803
153.2  4.8242325
153.1  4.7360341
153  4.8272798
152.9  4.8928172
152.8  4.9131727
152.7  4.7994654
152.6  4.8527302
152.5  4.82833
152.4  4.8258807
152.3  4.9380896
152.2  4.8506097
152.1  4.8548631
152  4.9479527
151.9  4.862127
151.8  4.8481346
151.7  4.8643772
151.6  4.9334284
151.5  4.9131545
151.4  4.8783413
151.3  4.9173741
151.2  4.9641073
151.1  4.9451836
151  4.9359783
150.9  4.901768
150.8  4.8561602
150.7  4.9246537
150.6  4.9495189
150.5  4.8530994
150.4  4.9053624
150.3  4.9980674
150.2  4.9198947
150.1  4.8844089
150  4.9070388

# Region:            C_1s
# Spectrum ID:       23
# Acquisition Date:  07/01/22 00:57:49 UTC
# Analysis Method:   XPS
# Analyzer:          Analyzer
# Analyzer Lens:     LargeArea:1.5kV
# Analyzer Slit:     4:3x20\B:open
# Scan Mode:         FixedAnalyzerTransmission
# Curves/Scan:       1
# Values/Curve:      179
# Dwell Time:        0.5
# Excitation Energy: 1486.71
# Binding Energy:    299.71
# Pass Energy:       30
# Bias Voltage:      -1
# Detector Voltage:  1800
# Eff. Workfunction: 4.498
# Source:            XR 50 MF (UXC1000)
# Comment:
# OrdinateRange:     [-18.000000, 18.000000]
#
# Cycle: 0
# Number of Scans: 50
#
# Cycle: 0, Curve: 0
# Acquisition Date: 07/01/22 00:57:49 UTC
#
# ColumnLabels: energy counts/s
#
299.71  3.2953595
299.61  3.3694998
299.51  3.3578372
299.41  3.3573436
299.31  3.3399636
299.21  3.3508167
299.11  3.3565387
299.01  3.3727638
298.91  3.3569558
298.81  3.3512146
298.71  3.3582843
298.61  3.3127617
298.51  3.3414888
298.41  3.3640441
298.31  3.3610699
298.21  3.3390875
298.11  3.4004602
298.01  3.3565722
297.91  3.3001043
297.81  3.3389383
297.71  3.3299492
297.61  3.3858689
297.51  3.4097627
297.41  3.3496034
297.31  3.3442617
297.21  3.3641151
297.11  3.375725
297.01  3.3721871
296.91  3.3843181
296.81  3.371439
296.71  3.3590779
296.61  3.4378319
296.51  3.4362057
296.41  3.4024172
296.31  3.365454
296.21  3.3902299
296.11  3.3830812
296.01  3.3881592
295.91  3.4165701
295.81  3.4628788
295.71  3.3976307
295.61  3.4262257
295.51  3.4074104
295.41  3.3963181
295.31  3.398255
295.21  3.4222561
295.11  3.453366
295.01  3.4747254
294.91  3.4205361
294.81  3.400644
294.71  3.4555881
294.61  3.4590018
294.51  3.4487032
294.41  3.4167166
294.31  3.4277239
294.21  3.4863647
294.11  3.4766607
294.01  3.4593646
293.91  3.4224562
293.81  3.4473951
293.71  3.4455142
293.61  3.4620953
293.51  3.4740738
293.41  3.4444725
293.31  3.5131377
293.21  3.4505538
293.11  3.4546782
293.01  3.4920869
292.91  3.5185684
292.81  3.4722
292.71  3.4357903
292.61  3.4591151
292.51  3.4919408
292.41  3.5170226
292.31  3.5042812
292.21  3.4974843
292.11  3.4952239
292.01  3.5209062
291.91  3.5240033
291.81  3.5209708
291.71  3.5219724
291.61  3.4901448
291.51  3.4534978
291.41  3.4517568
291.31  3.5015877
291.21  3.5102138
291.11  3.5326268
291.01  3.5205146
290.91  3.5901365
290.81  3.5890552
290.71  3.5514361
290.61  3.554212
290.51  3.5246771
290.41  3.5520918
290.31  3.5271702
290.21  3.5604167
290.11  3.563398
290.01  3.5534654
289.91  3.5841446
289.81  3.6075286
289.71  3.6172894
289.61  3.6654068
289.51  3.577019
289.41  3.6036999
289.31  3.6024439
289.21  3.6157592
289.11  3.6736582
289.01  3.6965687
288.91  3.7275133
288.81  3.7736042
288.71  3.7256336
288.61  3.7816375
288.51  3.8844951
288.41  3.9366764
288.31  3.8615732
288.21  3.921467
288.11  3.9861205
288.01  4.0588571
287.91  4.1219793
287.81  4.1272422
287.71  4.2086195
287.61  4.2452232
287.51  4.3132742
287.41  4.4726098
287.31  4.4747102
287.21  4.5830892
287.11  4.6993989
287.01  4.7349446
286.91  4.8300267
286.81  4.8394851
286.71  4.9837908
286.61  5.1211404
286.51  5.213156
286.41  5.4126104
286.31  5.6479764
286.21  5.8662092
286.11  6.2266283
286.01  6.5984941
285.91  6.9613751
285.81  7.2234594
285.71  7.6426828
285.61  8.0342476
285.51  8.158907
285.41  8.3874629
285.31  8.3662183
285.21  8.3734226
285.11  8.1984391
285.01  7.8413468
284.91  7.3983894
284.81  6.8068964
284.71  6.3077222
284.61  5.6798715
284.51  5.1907673
284.41  4.7268593
284.31  4.3889873
284.21  4.2164983
284.11  4.0038397
284.01  3.853706
283.91  3.7529322
283.81  3.6102278
283.71  3.5587802
283.61  3.4892583
283.51  3.4685445
283.41  3.4643035
283.31  3.382034
283.21  3.3887871
283.11  3.3959132
283.01  3.3750836
282.91  3.3480166
282.81  3.3280478
282.71  3.3286464
282.61  3.3585729
282.51  3.3349057
282.41  3.335665
282.31  3.3444797
282.21  3.3390815
282.11  3.3216258
282.01  3.2874084
281.91  3.2773009

# Region:            Cu_2p
# Spectrum ID:       24
# Acquisition Date:  06/30/22 15:37:55 UTC
# Analysis Method:   XPS
# Analyzer:          Analyzer
# Analyzer Lens:     LargeArea:1.5kV
# Analyzer Slit:     4:3x20\B:open
# Scan Mode:         FixedAnalyzerTransmission
# Curves/Scan:       1
# Values/Curve:      382
# Dwell Time:        0.5
# Excitation Energy: 1486.71
# Binding Energy:    960
# Pass Energy:       30
# Bias Voltage:      -1
# Detector Voltage:  1800
# Eff. Workfunction: 4.498
# Source:            XR 50 MF (UXC1000)
# Comment:
# OrdinateRange:     [-18.000000, 18.000000]
#
# Cycle: 0
# Number of Scans: 2
#
# Cycle: 0, Curve: 0
# Acquisition Date: 06/30/22 15:37:55 UTC
#
# ColumnLabels: energy counts/s
#
960  108.48711
959.9  106.87808
959.8  108.51179
959.7  110.64326
959.6  110.56584
959.5  110.27214
959.4  110.60838
959.3  110.99481
959.2  111.88081
959.1  110.45044
959  110.95183
958.9  109.84398
958.8  111.61736
958.7  111.27499
958.6  110.87881
958.5  108.29856
958.4  110.16903
958.3  112.12285
958.2  113.65672
958.1  113.28976
958  112.92755
957.9  112.35083
957.8  113.14707
957.7  114.54477
957.6  114.14348
957.5  115.83604
957.4  118.94334
957.3  115.3239
957.2  114.86321
957.1  115.00122
957  116.81521
956.9  117.02912
956.8  119.6706
956.7  119.06157
956.6  118.77258
956.5  119.14169
956.4  120.5329
956.3  121.19996
956.2  122.88016
956.1  124.07699
956  123.84302
955.9  125.04703
955.8  126.38746
955.7  125.39799
955.6  126.7169
955.5  129.51243
955.4  132.71518
955.3  134.25604
955.2  136.55748
955.1  138.59508
955  140.44668
954.9  146.36215
954.8  151.74063
954.7  155.06976
954.6  159.91341
954.5  165.58746
954.4  173.18431
954.3  180.14085
954.2  192.55113
954.1  201.16277
954  212.53794
953.9  226.99836
953.8  243.74271
953.7  262.604
953.6  282.22972
953.5  304.45616
953.4  327.65549
953.3  346.47724
953.2  376.53235
953.1  394.98604
953  415.0764
952.9  423.15285
952.8  423.34529
952.7  415.11245
952.6  398.60513
952.5  374.27133
952.4  348.86789
952.3  315.42419
952.2  283.15189
952.1  256.53166
952  232.13117
951.9  209.85422
951.8  191.12737
951.7  175.16528
951.6  165.19077
951.5  157.98465
951.4  147.95367
951.3  143.59605
951.2  135.23082
951.1  130.86173
951  123.14885
950.9  117.95427
950.8  117.57119
950.7  114.02952
950.6  112.76645
950.5  108.53091
950.4  107.82395
950.3  104.67003
950.2  104.63664
950.1  103.0056
950  99.178698
949.9  99.11124
949.8  97.322204
949.7  96.268491
949.6  94.987817
949.5  93.151347
949.4  93.935413
949.3  92.329334
949.2  91.820677
949.1  90.283589
949  91.26892
948.9  89.061182
948.8  89.750042
948.7  89.153237
948.6  90.022304
948.5  87.937669
948.4  86.391883
948.3  86.897801
948.2  86.866875
948.1  87.199829
948  87.270819
947.9  86.687121
947.8  85.773909
947.7  84.77163
947.6  86.604317
947.5  85.415942
947.4  85.364972
947.3  84.361337
947.2  83.498286
947.1  86.102801
947  85.457541
946.9  86.609311
946.8  84.826622
946.7  83.2787
946.6  82.462279
946.5  82.478178
946.4  82.638635
946.3  81.122015
946.2  81.787863
946.1  80.328226
946  79.979526
945.9  80.010108
945.8  78.740414
945.7  79.933861
945.6  78.216248
945.5  77.348593
945.4  76.532358
945.3  77.248972
945.2  77.236549
945.1  76.574646
945  75.110922
944.9  74.22475
944.8  74.030902
944.7  71.272397
944.6  73.57881
944.5  73.21441
944.4  72.737268
944.3  70.393609
944.2  69.770042
944.1  71.644739
944  71.123297
943.9  72.062309
943.8  70.65972
943.7  67.371633
943.6  67.795237
943.5  67.903212
943.4  66.687729
943.3  65.81019
943.2  65.622571
943.1  66.723965
943  66.046381
942.9  64.813796
942.8  64.519018
942.7  62.437527
942.6  61.605641
942.5  60.984141
942.4  62.019574
942.3  60.892423
942.2  60.808191
942.1  59.357956
942  59.79814
941.9  58.666675
941.8  58.566332
941.7  58.396462
941.6  58.125142
941.5  57.328622
941.4  57.668483
941.3  57.472389
941.2  57.682534
941.1  57.266955
941  56.334706
940.9  56.361921
940.8  57.922966
940.7  57.171781
940.6  57.658682
940.5  58.373567
940.4  57.716932
940.3  57.912932
940.2  56.610769
940.1  56.426717
940  56.817093
939.9  56.860116
939.8  59.288953
939.7  57.213081
939.6  58.047982
939.5  58.595539
939.4  56.758603
939.3  56.223487
939.2  57.454004
939.1  57.119291
939  57.021959
938.9  57.558676
938.8  56.659703
938.7  57.051325
938.6  58.269194
938.5  59.88974
938.4  59.74713
938.3  59.941391
938.2  60.65308
938.1  60.551452
938  61.126488
937.9  60.761182
937.8  61.305929
937.7  62.146898
937.6  62.883473
937.5  63.540892
937.4  63.55294
937.3  63.683018
937.2  63.151362
937.1  63.899129
937  64.510776
936.9  64.741173
936.8  65.272924
936.7  64.363296
936.6  65.388079
936.5  66.758358
936.4  67.927541
936.3  65.726298
936.2  66.840139
936.1  66.554624
936  69.23529
935.9  69.458966
935.8  71.669584
935.7  71.104396
935.6  72.363049
935.5  73.761529
935.4  76.007167
935.3  77.147268
935.2  80.363088
935.1  82.980528
935  87.581013
934.9  91.566225
934.8  95.534107
934.7  102.93226
934.6  113.65129
934.5  128.66312
934.4  145.58963
934.3  166.17118
934.2  192.24546
934.1  225.89712
934  265.7023
933.9  313.50835
933.8  367.88068
933.7  439.35578
933.6  516.51812
933.5  612.67478
933.4  722.55973
933.3  853.43984
933.2  991.28175
933.1  1095.997
933  1150.0939
932.9  1131.1211
932.8  1018.6705
932.7  853.53688
932.6  677.42899
932.5  515.51853
932.4  387.79086
932.3  290.55946
932.2  221.33171
932.1  172.86403
932  141.06551
931.9  116.80595
931.8  99.085188
931.7  84.389993
931.6  77.474231
931.5  67.041571
931.4  62.6585
931.3  56.073552
931.2  51.424124
931.1  48.899113
931  46.397419
930.9  44.241029
930.8  42.475986
930.7  41.011164
930.6  39.037443
930.5  38.283269
930.4  37.006319
930.3  36.601056
930.2  36.173131
930.1  35.562318
930  34.666033
929.9  33.266128
929.8  32.909442
929.7  32.285418
929.6  32.332839
929.5  31.182444
929.4  31.646421
929.3  31.446767
929.2  31.115291
929.1  30.71979
929  30.083002
928.9  31.101582
928.8  30.454145
928.7  30.36393
928.6  30.041011
928.5  30.330848
928.4  29.565515
928.3  29.675236
928.2  28.968977
928.1  28.849933
928  28.078301
927.9  28.53476
927.8  28.323673
927.7  28.14706
927.6  28.478625
927.5  27.774508
927.4  28.359421
927.3  28.012974
927.2  27.959141
927.1  27.485237
927  27.003519
926.9  27.558462
926.8  27.835314
926.7  27.34314
926.6  27.575256
926.5  26.837334
926.4  27.020711
926.3  27.278965
926.2  26.750064
926.1  28.119391
926  26.955518
925.9  27.096258
925.8  26.958405
925.7  27.353033
925.6  27.697315
925.5  26.924816
925.4  27.002723
925.3  27.355108
925.2  27.40408
925.1  27.620797
925  26.530213
924.9  27.273946
924.8  26.476065
924.7  26.948751
924.6  26.517036
924.5  27.285827
924.4  26.406218
924.3  26.962245
924.2  27.299925
924.1  27.857989
924  26.506284
923.9  26.515817
923.8  26.759479
923.7  26.658206
923.6  26.996852
923.5  27.286213
923.4  27.697616
923.3  27.025313
923.2  25.980427
923.1  26.488116
923  26.83419
922.9  27.029736
922.8  27.183193
922.7  26.965474
922.6  26.847035
922.5  26.495197
922.4  26.499393
922.3  25.76767
922.2  26.627745
922.1  26.156853
922  25.768754
921.9  27.119977

# Region:            survey_hd
# Spectrum ID:       25
# Acquisition Date:  06/30/22 19:04:16 UTC
# Analysis Method:   XPS
# Analyzer:          Analyzer
# Analyzer Lens:     MediumArea:1.5kV
# Analyzer Slit:     4:3x20\B:open
# Scan Mode:         FixedAnalyzerTransmission
# Curves/Scan:       1
# Values/Curve:      7018
# Dwell Time:        0.1
# Excitation Energy: 1486.71
# Binding Energy:    1400
# Pass Energy:       50
# Bias Voltage:      -1
# Detector Voltage:  1800
# Eff. Workfunction: 4.498
# Source:            XR 50 MF (UXC1000)
# Comment:
# OrdinateRange:     [-7.000000, 7.000000]
#
# Cycle: 0
# Number of Scans: 10
#
# Cycle: 0, Curve: 0
# Acquisition Date: 06/30/22 19:04:16 UTC
#
# ColumnLabels: energy counts/s
#
1400  90.656885
1399.8  89.22038
1399.6  89.245142
1399.4  87.201979
1399.2  86.900782
1399  86.98921
1398.8  87.993175
1398.6  85.65274
1398.4  84.578219
1398.2  83.940068
1398  83.636685
1397.8  83.770916
1397.6  80.075711
1397.4  81.80769
1397.2  81.259691
1397  80.479684
1396.8  80.97815
1396.6  78.730588
1396.4  77.728872
1396.2  77.258456
1396  77.750671
1395.8  78.501562
1395.6  78.332942
1395.4  77.841574
1395.2  76.574722
1395  75.376263
1394.8  73.652783
1394.6  72.892532
1394.4  72.69494
1394.2  74.238855
1394  72.773086
1393.8  72.026311
1393.6  71.818138
1393.4  72.035704
1393.2  70.384555
1393  69.722064
1392.8  70.124503
1392.6  71.449773
1392.4  70.683552
1392.2  69.937172
1392  70.464557
1391.8  69.228885
1391.6  67.379698
1391.4  67.010705
1391.2  67.552886
1391  67.899781
1390.8  66.65163
1390.6  67.175872
1390.4  64.809976
1390.2  63.905523
1390  63.802565
1389.8  64.068043
1389.6  65.073453
1389.4  63.162319
1389.2  64.406864
1389  64.597187
1388.8  63.378621
1388.6  62.85847
1388.4  61.730778
1388.2  61.27318
1388  61.81103
1387.8  60.820161
1387.6  59.425058
1387.4  59.226004
1387.2  59.604916
1387  60.515414
1386.8  59.090124
1386.6  59.280306
1386.4  59.872583
1386.2  59.340392
1386  58.060919
1385.8  56.998073
1385.6  57.477684
1385.4  56.961874
1385.2  56.466987
1385  56.494621
1384.8  56.940285
1384.6  56.562342
1384.4  56.768435
1384.2  56.40679
1384  55.66695
1383.8  55.381645
1383.6  54.205888
1383.4  54.398267
1383.2  54.056642
1383  54.339767
1382.8  53.912518
1382.6  53.296994
1382.4  53.415357
1382.2  53.991335
1382  53.304351
1381.8  52.510004
1381.6  52.428998
1381.4  51.31122
1381.2  51.301053
1381  52.149312
1380.8  52.091977
1380.6  50.858492
1380.4  51.053462
1380.2  51.578201
1380  51.092807
1379.8  50.224355
1379.6  50.084294
1379.4  50.788052
1379.2  49.524636
1379  49.880349
1378.8  49.915222
1378.6  50.324116
1378.4  50.911332
1378.2  49.990109
1378  47.963263
1377.8  49.105959
1377.6  48.871376
1377.4  48.909244
1377.2  47.647048
1377  47.603247
1376.8  47.193272
1376.6  47.489703
1376.4  47.634409
1376.2  46.919766
1376  46.674527
1375.8  46.554659
1375.6  46.050913
1375.4  46.811042
1375.2  46.565135
1375  46.239628
1374.8  45.420975
1374.6  45.927623
1374.4  45.551156
1374.2  45.045839
1374  44.424311
1373.8  44.769879
1373.6  44.729287
1373.4  44.042375
1373.2  44.614035
1373  43.279651
1372.8  43.639962
1372.6  44.24979
1372.4  43.131422
1372.2  42.721296
1372  42.15913
1371.8  43.132383
1371.6  42.468165
1371.4  42.106879
1371.2  42.962549
1371  43.096029
1370.8  41.926581
1370.6  42.310446
1370.4  41.393034
1370.2  41.830037
1370  41.060252
1369.8  41.233791
1369.6  41.047669
1369.4  41.033157
1369.2  41.40019
1369  41.379325
1368.8  41.369999
1368.6  41.561055
1368.4  40.714273
1368.2  40.73738
1368  40.200294
1367.8  40.062943
1367.6  39.532211
1367.4  39.851568
1367.2  39.955178
1367  39.472098
1366.8  39.873312
1366.6  39.686551
1366.4  40.034751
1366.2  38.686581
1366  39.291422
1365.8  38.665657
1365.6  38.257662
1365.4  38.022578
1365.2  38.040535
1365  38.318583
1364.8  38.508351
1364.6  38.399857
1364.4  37.942214
1364.2  39.318772
1364  39.580264
1363.8  39.433214
1363.6  39.289961
1363.4  39.094818
1363.2  37.125096
1363  37.83367
1362.8  38.006871
1362.6  37.89393
1362.4  37.285562
1362.2  36.929077
1362  37.056908
1361.8  37.236682
1361.6  37.286641
1361.4  37.63491
1361.2  37.760661
1361  37.425207
1360.8  37.239501
1360.6  36.470086
1360.4  37.451932
1360.2  37.71096
1360  37.587252
1359.8  37.331468
1359.6  37.112964
1359.4  36.635234
1359.2  36.489663
1359  37.348465
1358.8  37.689345
1358.6  36.880344
1358.4  36.989436
1358.2  37.370363
1358  36.857014
1357.8  36.716881
1357.6  37.154328
1357.4  37.198167
1357.2  36.207495
1357  36.577037
1356.8  36.210551
1356.6  37.367476
1356.4  37.094388
1356.2  36.253416
1356  36.206231
1355.8  37.105917
1355.6  36.579992
1355.4  36.515732
1355.2  36.156641
1355  36.480823
1354.8  35.262933
1354.6  35.966195
1354.4  35.828045
1354.2  34.766753
1354  35.747455
1353.8  35.929108
1353.6  36.192547
1353.4  35.258539
1353.2  34.564326
1353  35.330875
1352.8  35.169332
1352.6  34.752602
1352.4  35.187863
1352.2  35.290713
1352  35.896498
1351.8  35.521304
1351.6  35.578162
1351.4  35.77155
1351.2  36.336889
1351  35.755928
1350.8  35.285527
1350.6  35.403227
1350.4  35.653897
1350.2  35.801236
1350  34.829487
1349.8  35.972142
1349.6  35.269512
1349.4  35.60372
1349.2  36.212314
1349  35.193785
1348.8  35.213041
1348.6  35.327136
1348.4  35.721978
1348.2  35.583221
1348  34.374394
1347.8  34.441095
1347.6  35.653719
1347.4  34.800818
1347.2  35.335944
1347  35.888215
1346.8  34.917681
1346.6  35.079314
1346.4  34.437858
1346.2  33.946722
1346  34.839739
1345.8  35.711262
1345.6  35.452603
1345.4  35.591023
1345.2  35.634151
1345  35.124677
1344.8  35.514051
1344.6  35.308811
1344.4  35.250521
1344.2  34.264359
1344  34.897019
1343.8  34.200049
1343.6  34.578367
1343.4  34.404525
1343.2  34.69911
1343  35.17454
1342.8  35.020998
1342.6  35.180009
1342.4  35.519244
1342.2  34.524985
1342  34.209362
1341.8  34.813914
1341.6  34.388602
1341.4  35.355528
1341.2  36.239818
1341  35.419398
1340.8  34.259236
1340.6  35.00606
1340.4  34.877086
1340.2  35.311177
1340  35.535066
1339.8  35.616294
1339.6  35.591432
1339.4  35.501583
1339.2  35.248595
1339  35.509187
1338.8  35.22687
1338.6  34.364053
1338.4  34.605529
1338.2  36.113081
1338  34.736106
1337.8  35.479198
1337.6  34.388444
1337.4  35.351432
1337.2  35.663219
1337  33.770769
1336.8  35.750216
1336.6  35.854014
1336.4  36.474178
1336.2  34.627172
1336  34.496191
1335.8  35.126227
1335.6  35.232577
1335.4  35.505261
1335.2  35.46614
1335  34.471753
1334.8  34.249529
1334.6  34.827521
1334.4  35.380531
1334.2  35.354764
1334  35.182254
1333.8  35.351609
1333.6  35.982451
1333.4  35.823507
1333.2  35.857021
1333  35.907473
1332.8  35.406626
1332.6  35.060621
1332.4  35.656205
1332.2  35.757067
1332  35.808044
1331.8  36.461755
1331.6  35.184209
1331.4  35.997948
1331.2  34.816561
1331  33.907626
1330.8  34.169639
1330.6  35.33683
1330.4  35.422873
1330.2  34.83852
1330  35.318862
1329.8  35.368031
1329.6  35.927324
1329.4  35.140875
1329.2  34.768038
1329  35.200368
1328.8  34.806016
1328.6  35.518495
1328.4  36.015594
1328.2  34.847037
1328  35.60584
1327.8  35.869598
1327.6  35.05871
1327.4  35.604093
1327.2  35.868558
1327  35.092369
1326.8  34.713818
1326.6  34.392499
1326.4  34.400787
1326.2  34.32541
1326  34.567057
1325.8  34.528436
1325.6  34.697404
1325.4  34.73039
1325.2  34.851917
1325  34.434357
1324.8  34.852353
1324.6  34.379093
1324.4  34.901173
1324.2  35.155756
1324  35.405216
1323.8  34.966005
1323.6  35.08342
1323.4  35.281831
1323.2  35.009713
1323  34.438862
1322.8  34.215875
1322.6  35.482514
1322.4  34.837
1322.2  35.359679
1322  35.595154
1321.8  35.216432
1321.6  35.515229
1321.4  35.140967
1321.2  34.583609
1321  35.333149
1320.8  35.842484
1320.6  34.817502
1320.4  34.770503
1320.2  35.095068
1320  34.951705
1319.8  35.390958
1319.6  34.675734
1319.4  34.75573
1319.2  35.54407
1319  34.975456
1318.8  34.122608
1318.6  34.36567
1318.4  35.272023
1318.2  34.938137
1318  35.077704
1317.8  35.510846
1317.6  34.578693
1317.4  34.365855
1317.2  34.667961
1317  34.80967
1316.8  35.621724
1316.6  35.253121
1316.4  34.752146
1316.2  34.990916
1316  35.998948
1315.8  35.476998
1315.6  35.747871
1315.4  34.426509
1315.2  34.781802
1315  34.412012
1314.8  34.50768
1314.6  35.617338
1314.4  35.147299
1314.2  34.83014
1314  35.162664
1313.8  35.948356
1313.6  36.084613
1313.4  35.665981
1313.2  36.055978
1313  35.2694
1312.8  34.926249
1312.6  34.772563
1312.4  35.080758
1312.2  35.22331
1312  34.053234
1311.8  35.108624
1311.6  35.587901
1311.4  34.87716
1311.2  35.144533
1311  34.797296
1310.8  34.508462
1310.6  34.607462
1310.4  35.518524
1310.2  36.053048
1310  35.498391
1309.8  35.204283
1309.6  34.570279
1309.4  34.267719
1309.2  34.96337
1309  35.034778
1308.8  36.092877
1308.6  34.769942
1308.4  34.250061
1308.2  34.533325
1308  34.967908
1307.8  35.16236
1307.6  35.238587
1307.4  35.713055
1307.2  35.478331
1307  35.16344
1306.8  34.452105
1306.6  34.142187
1306.4  35.229342
1306.2  35.782378
1306  35.072778
1305.8  35.72659
1305.6  35.885249
1305.4  34.474627
1305.2  35.116479
1305  35.259982
1304.8  36.377676
1304.6  36.590353
1304.4  35.146056
1304.2  34.837172
1304  36.409217
1303.8  35.536509
1303.6  36.375235
1303.4  36.062917
1303.2  36.101243
1303  36.877966
1302.8  37.03414
1302.6  37.083973
1302.4  35.959827
1302.2  37.280088
1302  35.928915
1301.8  35.550837
1301.6  36.074653
1301.4  35.748454
1301.2  36.211934
1301  36.082102
1300.8  34.985481
1300.6  35.063823
1300.4  35.744128
1300.2  35.592306
1300  35.162651
1299.8  34.791247
1299.6  34.681421
1299.4  34.957516
1299.2  34.333356
1299  34.46022
1298.8  34.763116
1298.6  34.959535
1298.4  34.341779
1298.2  34.246701
1298  34.598869
1297.8  34.888448
1297.6  34.723045
1297.4  34.455638
1297.2  34.543236
1297  35.478192
1296.8  35.156945
1296.6  33.771909
1296.4  33.996735
1296.2  34.111269
1296  34.660384
1295.8  35.122776
1295.6  34.10342
1295.4  33.97604
1295.2  34.681255
1295  34.624894
1294.8  34.655855
1294.6  34.016232
1294.4  34.247006
1294.2  34.434715
1294  35.468457
1293.8  34.507067
1293.6  35.076561
1293.4  34.402478
1293.2  34.159582
1293  34.873178
1292.8  34.083816
1292.6  33.973876
1292.4  34.394262
1292.2  34.464846
1292  34.119415
1291.8  34.302602
1291.6  34.942284
1291.4  33.43355
1291.2  33.64718
1291  34.718342
1290.8  33.687922
1290.6  33.374415
1290.4  33.957145
1290.2  33.986681
1290  34.128816
1289.8  33.606766
1289.6  34.171348
1289.4  33.949016
1289.2  33.891728
1289  34.689908
1288.8  34.65977
1288.6  35.153809
1288.4  36.02266
1288.2  35.409506
1288  33.877371
1287.8  33.691335
1287.6  33.821261
1287.4  33.974166
1287.2  33.616623
1287  34.026192
1286.8  33.774729
1286.6  34.103811
1286.4  34.800832
1286.2  33.401368
1286  34.119807
1285.8  34.064375
1285.6  33.604556
1285.4  34.498834
1285.2  33.379477
1285  34.089284
1284.8  33.788939
1284.6  34.074591
1284.4  33.57666
1284.2  33.583332
1284  33.638807
1283.8  33.271196
1283.6  33.431023
1283.4  32.918969
1283.2  33.897751
1283  33.864427
1282.8  33.704764
1282.6  33.16895
1282.4  33.547192
1282.2  33.330993
1282  33.152893
1281.8  32.765485
1281.6  33.410439
1281.4  33.827442
1281.2  33.41751
1281  33.748658
1280.8  33.949858
1280.6  33.917622
1280.4  33.921175
1280.2  33.634592
1280  35.021084
1279.8  34.12137
1279.6  33.649479
1279.4  33.282181
1279.2  33.673491
1279  33.801089
1278.8  33.228829
1278.6  33.622988
1278.4  33.409513
1278.2  33.909136
1278  33.072137
1277.8  32.964892
1277.6  33.18155
1277.4  33.535709
1277.2  32.57794
1277  33.367535
1276.8  33.503853
1276.6  33.680857
1276.4  33.308197
1276.2  33.536156
1276  32.392198
1275.8  32.528981
1275.6  33.166092
1275.4  34.056238
1275.2  33.466549
1275  32.740063
1274.8  32.975581
1274.6  33.515244
1274.4  33.478045
1274.2  32.39958
1274  32.908418
1273.8  34.198524
1273.6  33.478961
1273.4  32.95656
1273.2  33.170924
1273  32.488426
1272.8  31.981578
1272.6  33.20476
1272.4  34.012306
1272.2  33.149111
1272  32.649629
1271.8  33.324469
1271.6  32.962232
1271.4  32.345483
1271.2  32.578165
1271  32.633867
1270.8  33.326191
1270.6  32.795237
1270.4  32.9794
1270.2  32.798979
1270  32.918848
1269.8  32.773365
1269.6  32.496036
1269.4  32.930816
1269.2  33.608881
1269  33.750688
1268.8  33.595261
1268.6  33.582349
1268.4  32.797392
1268.2  32.508356
1268  32.87561
1267.8  33.831273
1267.6  32.557662
1267.4  32.667189
1267.2  32.336574
1267  32.73842
1266.8  32.486195
1266.6  33.18702
1266.4  32.599762
1266.2  32.969896
1266  32.570089
1265.8  33.357903
1265.6  33.017781
1265.4  31.996627
1265.2  32.616162
1265  32.098742
1264.8  32.688931
1264.6  33.199214
1264.4  32.804031
1264.2  32.443214
1264  33.241098
1263.8  33.141315
1263.6  32.503065
1263.4  32.684242
1263.2  32.147145
1263  32.438002
1262.8  32.333024
1262.6  33.029699
1262.4  33.301195
1262.2  32.726633
1262  32.142654
1261.8  32.468603
1261.6  33.275156
1261.4  33.204323
1261.2  32.431008
1261  32.63644
1260.8  32.476313
1260.6  32.045671
1260.4  32.307672
1260.2  33.011626
1260  32.240398
1259.8  32.048676
1259.6  31.777511
1259.4  32.093
1259.2  32.358866
1259  32.003526
1258.8  31.945479
1258.6  32.202913
1258.4  33.134571
1258.2  32.660832
1258  31.735292
1257.8  32.108844
1257.6  31.927743
1257.4  32.470685
1257.2  32.724558
1257  31.562709
1256.8  31.895233
1256.6  33.304368
1256.4  32.539307
1256.2  32.576114
1256  32.200887
1255.8  32.622485
1255.6  32.866713
1255.4  33.000487
1255.2  31.997628
1255  31.476314
1254.8  32.42947
1254.6  33.068486
1254.4  32.393485
1254.2  32.076146
1254  32.933922
1253.8  31.703094
1253.6  31.785799
1253.4  32.402356
1253.2  32.487909
1253  32.423478
1252.8  32.474832
1252.6  31.437178
1252.4  32.172063
1252.2  32.060246
1252  33.000393
1251.8  32.019212
1251.6  32.103359
1251.4  31.68751
1251.2  31.10952
1251  31.865402
1250.8  31.649882
1250.6  33.064756
1250.4  32.348411
1250.2  32.076521
1250  32.472764
1249.8  32.323774
1249.6  32.185104
1249.4  31.740182
1249.2  31.663573
1249  32.211393
1248.8  31.721144
1248.6  32.163205
1248.4  32.318522
1248.2  31.909021
1248  31.759649
1247.8  32.226929
1247.6  31.816775
1247.4  32.096571
1247.2  32.389406
1247  32.101688
1246.8  31.404191
1246.6  31.49123
1246.4  32.256095
1246.2  32.275907
1246  32.960376
1245.8  31.99917
1245.6  31.662446
1245.4  31.175449
1245.2  31.647395
1245  32.121341
1244.8  31.932774
1244.6  31.687916
1244.4  31.893813
1244.2  32.543212
1244  31.390081
1243.8  31.301876
1243.6  31.708107
1243.4  31.797383
1243.2  32.015521
1243  31.158471
1242.8  32.204156
1242.6  32.071998
1242.4  30.70723
1242.2  31.052949
1242  31.057692
1241.8  31.395629
1241.6  32.00659
1241.4  31.675071
1241.2  31.734651
1241  31.29069
1240.8  30.98127
1240.6  31.622427
1240.4  31.849127
1240.2  31.832826
1240  31.31302
1239.8  30.851853
1239.6  31.235296
1239.4  31.769237
1239.2  31.462233
1239  31.149453
1238.8  31.763113
1238.6  32.117519
1238.4  31.395828
1238.2  31.359811
1238  31.851438
1237.8  31.591387
1237.6  31.915966
1237.4  31.574773
1237.2  31.549278
1237  31.405078
1236.8  31.579451
1236.6  32.378223
1236.4  32.045086
1236.2  31.674958
1236  32.149776
1235.8  32.36231
1235.6  32.079223
1235.4  31.3941
1235.2  31.485022
1235  31.782129
1234.8  31.878522
1234.6  31.586295
1234.4  32.256066
1234.2  31.714505
1234  30.966474
1233.8  31.51952
1233.6  31.434691
1233.4  31.877455
1233.2  31.798359
1233  31.883578
1232.8  32.215911
1232.6  32.564926
1232.4  31.720141
1232.2  31.1041
1232  31.708749
1231.8  31.759651
1231.6  31.778064
1231.4  31.730413
1231.2  31.92157
1231  32.248579
1230.8  32.269304
1230.6  32.281498
1230.4  31.634449
1230.2  31.555461
1230  32.302753
1229.8  31.956802
1229.6  32.104455
1229.4  31.695091
1229.2  31.558655
1229  31.314603
1228.8  31.554792
1228.6  31.78201
1228.4  31.711444
1228.2  31.566227
1228  32.154623
1227.8  31.733472
1227.6  31.661264
1227.4  31.459067
1227.2  31.260473
1227  31.354906
1226.8  32.162814
1226.6  31.932232
1226.4  32.241564
1226.2  31.920584
1226  31.238645
1225.8  31.632727
1225.6  30.691304
1225.4  31.135094
1225.2  31.301525
1225  31.01621
1224.8  30.952562
1224.6  31.817741
1224.4  31.594441
1224.2  31.46881
1224  31.909249
1223.8  31.969504
1223.6  31.918858
1223.4  31.669977
1223.2  31.765734
1223  31.26595
1222.8  30.931037
1222.6  31.830838
1222.4  32.456778
1222.2  32.338444
1222  31.537794
1221.8  32.428578
1221.6  32.18656
1221.4  32.021484
1221.2  31.990204
1221  31.861651
1220.8  31.306177
1220.6  31.551525
1220.4  31.872156
1220.2  31.193316
1220  31.232791
1219.8  30.582193
1219.6  31.710879
1219.4  31.695055
1219.2  31.08893
1219  31.461336
1218.8  31.608387
1218.6  31.760167
1218.4  31.067032
1218.2  31.475162
1218  31.382878
1217.8  32.016903
1217.6  31.463503
1217.4  31.475592
1217.2  30.74796
1217  30.578304
1216.8  31.466952
1216.6  31.940804
1216.4  31.722859
1216.2  31.467749
1216  31.965537
1215.8  31.646243
1215.6  31.884806
1215.4  30.95169
1215.2  30.87065
1215  30.865092
1214.8  30.948201
1214.6  30.629766
1214.4  30.433925
1214.2  30.66231
1214  30.646219
1213.8  31.538799
1213.6  31.243456
1213.4  31.540654
1213.2  31.235909
1213  30.459211
1212.8  30.624728
1212.6  30.268244
1212.4  30.907336
1212.2  30.754691
1212  30.809192
1211.8  30.642744
1211.6  31.179636
1211.4  30.133656
1211.2  30.357501
1211  30.340005
1210.8  30.237478
1210.6  30.897493
1210.4  31.339726
1210.2  29.868101
1210  29.553934
1209.8  30.296418
1209.6  30.655281
1209.4  29.497908
1209.2  29.746935
1209  30.379863
1208.8  29.901929
1208.6  29.549162
1208.4  30.594609
1208.2  31.279461
1208  30.39693
1207.8  30.204906
1207.6  30.209363
1207.4  30.862197
1207.2  31.41251
1207  31.131511
1206.8  30.90085
1206.6  30.77629
1206.4  30.79899
1206.2  30.378359
1206  29.740385
1205.8  30.092145
1205.6  30.127712
1205.4  30.56559
1205.2  31.015429
1205  30.761275
1204.8  30.62814
1204.6  29.892012
1204.4  28.880475
1204.2  29.754447
1204  29.588214
1203.8  30.561491
1203.6  30.311496
1203.4  30.657948
1203.2  30.609351
1203  30.011323
1202.8  30.416238
1202.6  30.37357
1202.4  30.1586
1202.2  30.183278
1202  30.28304
1201.8  30.396128
1201.6  29.771196
1201.4  30.105386
1201.2  30.72688
1201  30.157882
1200.8  30.020615
1200.6  30.259496
1200.4  30.500323
1200.2  30.462969
1200  29.411958
1199.8  29.518446
1199.6  29.713402
1199.4  29.395072
1199.2  30.072836
1199  30.968878
1198.8  30.321009
1198.6  30.450135
1198.4  29.755328
1198.2  29.787313
1198  29.382651
1197.8  29.943019
1197.6  29.560811
1197.4  29.737069
1197.2  29.651075
1197  29.767638
1196.8  30.497863
1196.6  30.295681
1196.4  30.734177
1196.2  30.865306
1196  30.67529
1195.8  29.656848
1195.6  30.273632
1195.4  30.296322
1195.2  30.712876
1195  30.25696
1194.8  29.9599
1194.6  29.988413
1194.4  30.378379
1194.2  29.884788
1194  30.094493
1193.8  30.25197
1193.6  30.595283
1193.4  30.519961
1193.2  29.808483
1193  30.316997
1192.8  29.817137
1192.6  29.846032
1192.4  29.678894
1192.2  30.357339
1192  30.132451
1191.8  29.842439
1191.6  29.769447
1191.4  29.557522
1191.2  30.22451
1191  30.351702
1190.8  30.06588
1190.6  29.918919
1190.4  29.976503
1190.2  29.893177
1190  30.850637
1189.8  30.474302
1189.6  30.461399
1189.4  30.307175
1189.2  30.007039
1189  30.594389
1188.8  29.639585
1188.6  29.965752
1188.4  29.383024
1188.2  29.337165
1188  29.424367
1187.8  31.003894
1187.6  30.638671
1187.4  29.759477
1187.2  29.614461
1187  29.801211
1186.8  29.926546
1186.6  30.255594
1186.4  29.038916
1186.2  30.197003
1186  29.732677
1185.8  29.697987
1185.6  30.272553
1185.4  30.050276
1185.2  30.34375
1185  30.022488
1184.8  30.243197
1184.6  30.45465
1184.4  30.65182
1184.2  30.162686
1184  29.816065
1183.8  29.801098
1183.6  30.93856
1183.4  30.398067
1183.2  30.908466
1183  30.556087
1182.8  30.630522
1182.6  30.07665
1182.4  30.020967
1182.2  30.331352
1182  30.390795
1181.8  30.321431
1181.6  30.294415
1181.4  30.724096
1181.2  30.417079
1181  29.843834
1180.8  29.338349
1180.6  30.071026
1180.4  29.842948
1180.2  30.415784
1180  30.082083
1179.8  30.165476
1179.6  29.939558
1179.4  29.795711
1179.2  29.801235
1179  29.901656
1178.8  30.537155
1178.6  30.236483
1178.4  30.438099
1178.2  30.034049
1178  30.08944
1177.8  29.654396
1177.6  30.004364
1177.4  29.208747
1177.2  29.946841
1177  29.700981
1176.8  29.941979
1176.6  30.236073
1176.4  30.300982
1176.2  29.810833
1176  30.241752
1175.8  29.9549
1175.6  29.910906
1175.4  30.139725
1175.2  29.842069
1175  30.015571
1174.8  29.454773
1174.6  29.86212
1174.4  29.810969
1174.2  30.202144
1174  29.638552
1173.8  29.753829
1173.6  30.609979
1173.4  29.310484
1173.2  29.912709
1173  30.114937
1172.8  30.127229
1172.6  29.227086
1172.4  29.52645
1172.2  29.446688
1172  29.688874
1171.8  29.879588
1171.6  29.610812
1171.4  30.171007
1171.2  29.649671
1171  30.072063
1170.8  30.008063
1170.6  31.092353
1170.4  30.186622
1170.2  30.758946
1170  30.293532
1169.8  29.66033
1169.6  30.096922
1169.4  30.798449
1169.2  30.499101
1169  30.567621
1168.8  30.490309
1168.6  29.909282
1168.4  30.023955
1168.2  30.867264
1168  30.18461
1167.8  31.266775
1167.6  30.677188
1167.4  30.386909
1167.2  30.76434
1167  29.945348
1166.8  29.949433
1166.6  30.334586
1166.4  30.898491
1166.2  30.5902
1166  30.39556
1165.8  29.964004
1165.6  29.895839
1165.4  30.210878
1165.2  30.816287
1165  29.966679
1164.8  30.064524
1164.6  29.944578
1164.4  29.449384
1164.2  29.977764
1164  30.608223
1163.8  30.111053
1163.6  30.554118
1163.4  30.230729
1163.2  30.340084
1163  30.841708
1162.8  30.107649
1162.6  29.96545
1162.4  30.117245
1162.2  30.502034
1162  30.123996
1161.8  30.334624
1161.6  31.247219
1161.4  31.064971
1161.2  31.113102
1161  30.088312
1160.8  30.275094
1160.6  31.113927
1160.4  30.406667
1160.2  30.737472
1160  30.236911
1159.8  30.33025
1159.6  30.659156
1159.4  30.756006
1159.2  30.898372
1159  30.957245
1158.8  30.3149
1158.6  30.32177
1158.4  30.425132
1158.2  30.839409
1158  30.951203
1157.8  31.215737
1157.6  30.978579
1157.4  30.045484
1157.2  29.392375
1157  29.874315
1156.8  29.514954
1156.6  30.361414
1156.4  29.779244
1156.2  30.854175
1156  30.664795
1155.8  30.899029
1155.6  30.534644
1155.4  30.783808
1155.2  30.246038
1155  30.283493
1154.8  29.702322
1154.6  30.467094
1154.4  31.314322
1154.2  31.211133
1154  30.626233
1153.8  30.320488
1153.6  30.781524
1153.4  30.505723
1153.2  29.883554
1153  30.164448
1152.8  30.902841
1152.6  30.074701
1152.4  30.6856
1152.2  31.411109
1152  31.043798
1151.8  31.284563
1151.6  31.112127
1151.4  31.230053
1151.2  30.016139
1151  30.261524
1150.8  31.083311
1150.6  30.586319
1150.4  30.985897
1150.2  30.378846
1150  30.354568
1149.8  30.17528
1149.6  30.008838
1149.4  30.777607
1149.2  30.731601
1149  31.547496
1148.8  30.458295
1148.6  29.923858
1148.4  30.473045
1148.2  31.60927
1148  31.362623
1147.8  30.971355
1147.6  30.233638
1147.4  30.875873
1147.2  30.682757
1147  30.942764
1146.8  31.044179
1146.6  31.07948
1146.4  31.360219
1146.2  30.644886
1146  30.736748
1145.8  30.263011
1145.6  29.825067
1145.4  31.318484
1145.2  30.232255
1145  31.064875
1144.8  31.659729
1144.6  30.760261
1144.4  30.92675
1144.2  30.852044
1144  30.58399
1143.8  30.88345
1143.6  31.59166
1143.4  31.037812
1143.2  29.940584
1143  30.131945
1142.8  30.929614
1142.6  31.777187
1142.4  30.831287
1142.2  31.165464
1142  30.25278
1141.8  30.434967
1141.6  30.588534
1141.4  31.573536
1141.2  30.796417
1141  30.632196
1140.8  31.144962
1140.6  30.562449
1140.4  30.986353
1140.2  31.525426
1140  31.542116
1139.8  31.560605
1139.6  31.242062
1139.4  30.986979
1139.2  30.79899
1139  31.7588
1138.8  31.679392
1138.6  30.420979
1138.4  30.393959
1138.2  30.107742
1138  30.30913
1137.8  29.783059
1137.6  30.6677
1137.4  31.044517
1137.2  31.068409
1137  31.748449
1136.8  31.244787
1136.6  31.430638
1136.4  30.722715
1136.2  30.386447
1136  30.426651
1135.8  30.930064
1135.6  30.503741
1135.4  30.783283
1135.2  31.44982
1135  31.169012
1134.8  31.365218
1134.6  30.858646
1134.4  31.155902
1134.2  31.03424
1134  31.223947
1133.8  31.534448
1133.6  31.585444
1133.4  31.742714
1133.2  31.401013
1133  30.75811
1132.8  30.990591
1132.6  30.897439
1132.4  31.814359
1132.2  31.588921
1132  32.050192
1131.8  32.299376
1131.6  32.197059
1131.4  31.077392
1131.2  31.295941
1131  31.142689
1130.8  31.366474
1130.6  30.415529
1130.4  30.941083
1130.2  31.33812
1130  30.999748
1129.8  31.754934
1129.6  32.050425
1129.4  31.670886
1129.2  31.292354
1129  31.54141
1128.8  31.008449
1128.6  31.971817
1128.4  31.967749
1128.2  31.482377
1128  32.113739
1127.8  31.792742
1127.6  31.187269
1127.4  30.856927
1127.2  30.894301
1127  31.597283
1126.8  31.496522
1126.6  31.20327
1126.4  31.368519
1126.2  32.329402
1126  31.397435
1125.8  31.653603
1125.6  32.236051
1125.4  31.226578
1125.2  31.68824
1125  32.098152
1124.8  31.881927
1124.6  31.959266
1124.4  31.719744
1124.2  31.859351
1124  31.500502
1123.8  31.385394
1123.6  31.7291
1123.4  31.482617
1123.2  32.189363
1123  32.383103
1122.8  32.143671
1122.6  32.840497
1122.4  32.817447
1122.2  32.225549
1122  31.944403
1121.8  31.758966
1121.6  31.846207
1121.4  32.050632
1121.2  32.293497
1121  32.048748
1120.8  32.301251
1120.6  31.685358
1120.4  32.128706
1120.2  31.979625
1120  31.90819
1119.8  31.651375
1119.6  31.976537
1119.4  31.920588
1119.2  32.618773
1119  32.510047
1118.8  31.999106
1118.6  31.224641
1118.4  31.819151
1118.2  32.938121
1118  32.785753
1117.8  31.876462
1117.6  31.839207
1117.4  32.680416
1117.2  32.09855
1117  32.07484
1116.8  32.224768
1116.6  31.843807
1116.4  31.817636
1116.2  31.760049
1116  32.026394
1115.8  32.251731
1115.6  31.529072
1115.4  32.071806
1115.2  32.132389
1115  32.62296
1114.8  32.008938
1114.6  32.011469
1114.4  31.347891
1114.2  31.036525
1114  31.736534
1113.8  31.858043
1113.6  31.510918
1113.4  32.301359
1113.2  33.506515
1113  33.10614
1112.8  32.82034
1112.6  32.2382
1112.4  32.247338
1112.2  32.210531
1112  31.780022
1111.8  31.97918
1111.6  31.373811
1111.4  31.261969
1111.2  31.449509
1111  32.028045
1110.8  32.030145
1110.6  32.732965
1110.4  31.547299
1110.2  31.681571
1110  31.970284
1109.8  30.891174
1109.6  31.211776
1109.4  30.881709
1109.2  30.7613
1109  31.354323
1108.8  31.712483
1108.6  31.795661
1108.4  31.68155
1108.2  31.377194
1108  30.672952
1107.8  31.523281
1107.6  31.294787
1107.4  31.868246
1107.2  31.826635
1107  31.349312
1106.8  31.519879
1106.6  31.425921
1106.4  31.347582
1106.2  31.45768
1106  31.174024
1105.8  31.399716
1105.6  31.371904
1105.4  31.817749
1105.2  31.687371
1105  31.316584
1104.8  31.149185
1104.6  30.768935
1104.4  32.080524
1104.2  32.096643
1104  32.557158
1103.8  31.774655
1103.6  31.572778
1103.4  32.255329
1103.2  31.804288
1103  31.116119
1102.8  30.886743
1102.6  31.194754
1102.4  31.577794
1102.2  32.035108
1102  31.540118
1101.8  32.751119
1101.6  31.957969
1101.4  32.019945
1101.2  32.358904
1101  32.781166
1100.8  33.187598
1100.6  33.322901
1100.4  33.220984
1100.2  33.421831
1100  34.405342
1099.8  34.258704
1099.6  33.937853
1099.4  34.578441
1099.2  35.260034
1099  35.369153
1098.8  35.972606
1098.6  36.879297
1098.4  35.792792
1098.2  36.496935
1098  36.110616
1097.8  36.750708
1097.6  37.124613
1097.4  37.101401
1097.2  37.277826
1097  37.923911
1096.8  37.642807
1096.6  37.510837
1096.4  37.533571
1096.2  36.7409
1096  36.439126
1095.8  36.829025
1095.6  35.568685
1095.4  35.176497
1095.2  35.517997
1095  34.908084
1094.8  34.37158
1094.6  33.368398
1094.4  33.373705
1094.2  33.033168
1094  32.760304
1093.8  32.134331
1093.6  31.184178
1093.4  31.361793
1093.2  30.672696
1093  31.181391
1092.8  31.329977
1092.6  31.468606
1092.4  30.319293
1092.2  30.645511
1092  31.133777
1091.8  30.686347
1091.6  30.803605
1091.4  30.425757
1091.2  30.329397
1091  29.031399
1090.8  29.581386
1090.6  29.45369
1090.4  29.802282
1090.2  29.271932
1090  29.58584
1089.8  29.373033
1089.6  28.841494
1089.4  29.72979
1089.2  29.409576
1089  28.841657
1088.8  28.842553
1088.6  28.166023
1088.4  27.97736
1088.2  28.920534
1088  28.829494
1087.8  28.452304
1087.6  28.973328
1087.4  28.67678
1087.2  28.246368
1087  28.229757
1086.8  28.24346
1086.6  28.086037
1086.4  28.923277
1086.2  28.468638
1086  28.863283
1085.8  27.863891
1085.6  28.057453
1085.4  28.376256
1085.2  28.34203
1085  28.437867
1084.8  28.610396
1084.6  28.282125
1084.4  27.873059
1084.2  28.324006
1084  28.770271
1083.8  27.764027
1083.6  28.594595
1083.4  27.937904
1083.2  27.387143
1083  27.75668
1082.8  27.766143
1082.6  28.660001
1082.4  27.933101
1082.2  27.460223
1082  27.780334
1081.8  28.006433
1081.6  28.733285
1081.4  27.909469
1081.2  27.341861
1081  27.628201
1080.8  27.534391
1080.6  28.099993
1080.4  28.455725
1080.2  28.358872
1080  28.498162
1079.8  28.267659
1079.6  28.947958
1079.4  28.146194
1079.2  27.980399
1079  27.697137
1078.8  28.297566
1078.6  28.008662
1078.4  28.018795
1078.2  28.267677
1078  27.744509
1077.8  28.0347
1077.6  28.081698
1077.4  27.783881
1077.2  28.181416
1077  27.962001
1076.8  28.02927
1076.6  28.07721
1076.4  28.229555
1076.2  27.981429
1076  27.76616
1075.8  28.60482
1075.6  28.901886
1075.4  28.818381
1075.2  28.514235
1075  28.004439
1074.8  28.409408
1074.6  28.716546
1074.4  28.692246
1074.2  28.908789
1074  28.411374
1073.8  28.914368
1073.6  28.133008
1073.4  27.32159
1073.2  27.704897
1073  28.692695
1072.8  28.825516
1072.6  28.422628
1072.4  28.207297
1072.2  27.409268
1072  27.996421
1071.8  28.440916
1071.6  28.700921
1071.4  29.226803
1071.2  28.22639
1071  28.571362
1070.8  28.536174
1070.6  27.763293
1070.4  27.242613
1070.2  28.37161
1070  28.614863
1069.8  28.333203
1069.6  28.57096
1069.4  28.4158
1069.2  29.324901
1069  28.488131
1068.8  27.704709
1068.6  27.442629
1068.4  27.937461
1068.2  27.706266
1068  28.940682
1067.8  29.215718
1067.6  28.188396
1067.4  29.306309
1067.2  28.632027
1067  28.733633
1066.8  27.92641
1066.6  28.82855
1066.4  28.999327
1066.2  28.493734
1066  28.118647
1065.8  28.243566
1065.6  27.858544
1065.4  28.504291
1065.2  28.733652
1065  28.752161
1064.8  28.024765
1064.6  28.258743
1064.4  27.971163
1064.2  28.513652
1064  28.292206
1063.8  28.696339
1063.6  29.333033
1063.4  29.209024
1063.2  28.209906
1063  28.028833
1062.8  28.374768
1062.6  28.254068
1062.4  27.754641
1062.2  27.762948
1062  27.303892
1061.8  28.230973
1061.6  29.101894
1061.4  28.299646
1061.2  28.460715
1061  27.930611
1060.8  28.72458
1060.6  29.675428
1060.4  28.97873
1060.2  28.601756
1060  29.45573
1059.8  28.276514
1059.6  28.630645
1059.4  29.50882
1059.2  28.70372
1059  28.763288
1058.8  28.187974
1058.6  28.635168
1058.4  29.30016
1058.2  28.547073
1058  28.187956
1057.8  28.56933
1057.6  29.015787
1057.4  28.891814
1057.2  29.468287
1057  28.727179
1056.8  28.467552
1056.6  28.745302
1056.4  28.931288
1056.2  28.910863
1056  29.319298
1055.8  28.595946
1055.6  28.825043
1055.4  28.265832
1055.2  28.292782
1055  28.459403
1054.8  29.548167
1054.6  29.347425
1054.4  29.300172
1054.2  28.991729
1054  28.192321
1053.8  29.282935
1053.6  28.608932
1053.4  29.161139
1053.2  29.226757
1053  29.107236
1052.8  30.081006
1052.6  29.501286
1052.4  28.426464
1052.2  29.988478
1052  28.609364
1051.8  29.153501
1051.6  29.861731
1051.4  29.776261
1051.2  29.241063
1051  29.668284
1050.8  29.03725
1050.6  29.099183
1050.4  29.306476
1050.2  29.997658
1050  29.724681
1049.8  29.70381
1049.6  29.371603
1049.4  28.867437
1049.2  29.552365
1049  29.530085
1048.8  29.568842
1048.6  29.285113
1048.4  29.282349
1048.2  29.717527
1048  29.316072
1047.8  28.260927
1047.6  29.278928
1047.4  29.463515
1047.2  28.237198
1047  29.306489
1046.8  29.193712
1046.6  30.232643
1046.4  29.769526
1046.2  29.277519
1046  28.61381
1045.8  29.676971
1045.6  30.688521
1045.4  30.041805
1045.2  29.580392
1045  30.347528
1044.8  30.273028
1044.6  30.576495
1044.4  30.359391
1044.2  30.176229
1044  29.369404
1043.8  29.961086
1043.6  29.265118
1043.4  29.545273
1043.2  29.343248
1043  30.344803
1042.8  29.700086
1042.6  30.144189
1042.4  29.443663
1042.2  29.990587
1042  29.524286
1041.8  29.215018
1041.6  29.627754
1041.4  29.953118
1041.2  29.730558
1041  30.050559
1040.8  30.099521
1040.6  29.702125
1040.4  29.662239
1040.2  30.079575
1040  30.10039
1039.8  29.863576
1039.6  30.155495
1039.4  29.911546
1039.2  30.609452
1039  29.788054
1038.8  29.697376
1038.6  29.801896
1038.4  29.69187
1038.2  30.312352
1038  29.857621
1037.8  30.040273
1037.6  29.334318
1037.4  30.068846
1037.2  30.428245
1037  30.046706
1036.8  29.096873
1036.6  29.304977
1036.4  30.655563
1036.2  31.27355
1036  30.990256
1035.8  30.4533
1035.6  30.703967
1035.4  30.060523
1035.2  30.209532
1035  30.033864
1034.8  30.187174
1034.6  30.966846
1034.4  30.502975
1034.2  30.197508
1034  30.596911
1033.8  29.743893
1033.6  29.641931
1033.4  30.618956
1033.2  30.509892
1033  29.881021
1032.8  30.93894
1032.6  30.616424
1032.4  30.132478
1032.2  30.554364
1032  30.330875
1031.8  30.392256
1031.6  30.85141
1031.4  30.944943
1031.2  30.074107
1031  30.355329
1030.8  30.580655
1030.6  30.63175
1030.4  30.583277
1030.2  30.73538
1030  31.121514
1029.8  30.705328
1029.6  30.594241
1029.4  31.098846
1029.2  31.144833
1029  30.129792
1028.8  30.748482
1028.6  31.569689
1028.4  31.407045
1028.2  30.64071
1028  31.064944
1027.8  31.371512
1027.6  30.895375
1027.4  30.995282
1027.2  31.886516
1027  31.139611
1026.8  31.356827
1026.6  32.425338
1026.4  31.482068
1026.2  31.382376
1026  30.609212
1025.8  30.517032
1025.6  30.700457
1025.4  30.255454
1025.2  31.804078
1025  32.127189
1024.8  31.914012
1024.6  31.707683
1024.4  31.584687
1024.2  31.7314
1024  31.44072
1023.8  31.363157
1023.6  31.622919
1023.4  31.388575
1023.2  31.653678
1023  32.046394
1022.8  30.87587
1022.6  31.134897
1022.4  31.746876
1022.2  31.631764
1022  31.602126
1021.8  31.292885
1021.6  31.96223
1021.4  32.208335
1021.2  31.703727
1021  31.459151
1020.8  31.206733
1020.6  31.762684
1020.4  31.308855
1020.2  32.601018
1020  32.332559
1019.8  32.313605
1019.6  31.930953
1019.4  31.545785
1019.2  31.687937
1019  32.123083
1018.8  31.438263
1018.6  31.521144
1018.4  31.705999
1018.2  31.515118
1018  32.526317
1017.8  32.048366
1017.6  31.572968
1017.4  32.338568
1017.2  32.8613
1017  32.874462
1016.8  33.073596
1016.6  33.607532
1016.4  32.681881
1016.2  32.466321
1016  32.643642
1015.8  33.18961
1015.6  32.674962
1015.4  33.102719
1015.2  32.790458
1015  32.75669
1014.8  32.004615
1014.6  31.947765
1014.4  32.423535
1014.2  32.948973
1014  32.548361
1013.8  32.470036
1013.6  32.371653
1013.4  32.738747
1013.2  32.376862
1013  32.03112
1012.8  32.557955
1012.6  33.431179
1012.4  33.039682
1012.2  33.430583
1012  33.438938
1011.8  32.744235
1011.6  32.913901
1011.4  33.327125
1011.2  32.412017
1011  32.99179
1010.8  33.958706
1010.6  33.941016
1010.4  33.469608
1010.2  33.246297
1010  32.714088
1009.8  33.600996
1009.6  32.509243
1009.4  33.398056
1009.2  33.28238
1009  33.032295
1008.8  33.713844
1008.6  33.34144
1008.4  34.473684
1008.2  33.828139
1008  33.598852
1007.8  32.738591
1007.6  33.395048
1007.4  33.650646
1007.2  33.629314
1007  33.706843
1006.8  34.060255
1006.6  34.067115
1006.4  33.563006
1006.2  33.684497
1006  33.573632
1005.8  33.620435
1005.6  33.153071
1005.4  33.948491
1005.2  35.272841
1005  33.751588
1004.8  33.99871
1004.6  33.909133
1004.4  34.337796
1004.2  34.391697
1004  33.24006
1003.8  34.183971
1003.6  34.374891
1003.4  34.560193
1003.2  35.195172
1003  34.838514
1002.8  34.579602
1002.6  33.994622
1002.4  35.018693
1002.2  34.889911
1002  34.324945
1001.8  34.847546
1001.6  33.929219
1001.4  34.225189
1001.2  34.062504
1001  34.765048
1000.8  34.943208
1000.6  35.32439
1000.4  34.68051
1000.2  35.777698
1000  35.106717
999.8  34.174161
999.6  34.949991
999.4  34.991958
999.2  35.738974
999  35.002559
998.8  34.780953
998.6  34.706247
998.4  34.713793
998.2  34.974581
998  35.993898
997.8  35.937832
997.6  35.158649
997.4  35.428039
997.2  35.257076
997  35.899532
996.8  35.055146
996.6  35.173883
996.4  35.919585
996.2  35.347513
996  35.193924
995.8  35.897534
995.6  35.612621
995.4  36.464944
995.2  35.525041
995  35.745216
994.8  36.466669
994.6  36.142536
994.4  36.428863
994.2  35.839306
994  35.853059
993.8  36.187938
993.6  35.954532
993.4  36.311965
993.2  36.148879
993  35.987231
992.8  36.296104
992.6  35.917878
992.4  36.827416
992.2  36.653856
992  36.461409
991.8  36.309173
991.6  35.962012
991.4  36.42863
991.2  36.699321
991  36.208476
990.8  36.200205
990.6  36.302582
990.4  37.462911
990.2  36.896835
990  36.206236
989.8  35.771534
989.6  35.616105
989.4  36.920858
989.2  37.649469
989  37.950817
988.8  37.520632
988.6  36.337953
988.4  36.673676
988.2  37.377622
988  36.737891
987.8  36.758746
987.6  37.433181
987.4  37.073167
987.2  37.096531
987  37.571018
986.8  37.457229
986.6  37.3089
986.4  37.596098
986.2  37.604577
986  36.893094
985.8  36.864847
985.6  37.583484
985.4  36.73592
985.2  37.71285
985  37.78564
984.8  37.168981
984.6  38.482191
984.4  38.549028
984.2  38.209452
984  38.608262
983.8  38.778412
983.6  39.043685
983.4  38.898764
983.2  39.117967
983  38.317913
982.8  39.039504
982.6  38.599778
982.4  38.077026
982.2  37.994915
982  38.618415
981.8  38.690425
981.6  38.614038
981.4  38.760768
981.2  39.520956
981  39.507721
980.8  38.952157
980.6  39.21379
980.4  39.111387
980.2  39.015638
980  39.097983
979.8  39.8819
979.6  39.722113
979.4  39.070578
979.2  38.816404
979  38.308921
978.8  39.392324
978.6  39.460286
978.4  39.658346
978.2  40.309217
978  39.486475
977.8  38.863985
977.6  40.1206
977.4  40.283991
977.2  40.206426
977  39.798552
976.8  40.813724
976.6  40.551112
976.4  40.980764
976.2  40.949219
976  39.630877
975.8  40.014394
975.6  40.871953
975.4  40.587278
975.2  39.838869
975  40.842764
974.8  41.41629
974.6  40.795072
974.4  40.781921
974.2  40.500129
974  41.817767
973.8  42.188316
973.6  40.929618
973.4  40.493192
973.2  41.410124
973  41.379562
972.8  41.510951
972.6  41.451342
972.4  41.372388
972.2  41.313557
972  40.768127
971.8  42.590275
971.6  41.467281
971.4  40.85918
971.2  40.756753
971  40.833618
970.8  41.249717
970.6  40.722523
970.4  40.809374
970.2  40.357052
970  40.944966
969.8  42.593188
969.6  40.909269
969.4  40.4875
969.2  41.187254
969  40.992319
968.8  41.007436
968.6  40.832178
968.4  40.923171
968.2  40.262817
968  40.532486
967.8  41.1103
967.6  40.597114
967.4  40.618812
967.2  39.916146
967  39.798842
966.8  41.030669
966.6  40.540374
966.4  42.100882
966.2  40.987562
966  40.764751
965.8  41.155179
965.6  40.508338
965.4  40.464503
965.2  42.047917
965  42.009939
964.8  41.839686
964.6  42.193302
964.4  41.78061
964.2  40.997202
964  41.253068
963.8  39.965356
963.6  38.729692
963.4  39.181307
963.2  38.980822
963  38.805207
962.8  39.253208
962.6  39.241012
962.4  39.397979
962.2  38.744089
962  39.570225
961.8  38.91553
961.6  39.145703
961.4  38.112838
961.2  37.165661
961  38.738521
960.8  38.53355
960.6  39.135846
960.4  39.211271
960.2  39.262608
960  39.305245
959.8  38.680498
959.6  40.179782
959.4  40.043989
959.2  39.995606
959  38.892752
958.8  39.41224
958.6  39.705403
958.4  41.069948
958.2  40.329234
958  40.26037
957.8  40.884337
957.6  40.357359
957.4  40.350782
957.2  40.380375
957  41.584827
956.8  41.725181
956.6  41.876788
956.4  41.677471
956.2  42.350864
956  43.612516
955.8  43.959834
955.6  44.778566
955.4  45.446732
955.2  46.472864
955  46.955602
954.8  47.59595
954.6  50.905631
954.4  52.732683
954.2  54.099581
954  59.287061
953.8  64.999201
953.6  72.099092
953.4  83.806187
953.2  99.432192
953  117.44379
952.8  131.73965
952.6  141.92509
952.4  132.56991
952.2  115.54034
952  93.647398
951.8  75.837974
951.6  64.407366
951.4  56.514118
951.2  51.987168
951  47.922825
950.8  44.500764
950.6  42.930747
950.4  41.933401
950.2  39.520765
950  38.790061
949.8  37.917797
949.6  36.939587
949.4  36.552767
949.2  36.127867
949  36.417063
948.8  34.99497
948.6  33.973436
948.4  33.867823
948.2  33.970283
948  33.546847
947.8  33.977031
947.6  33.319546
947.4  34.054852
947.2  33.161771
947  33.145158
946.8  33.433529
946.6  33.258835
946.4  32.872007
946.2  33.497558
946  33.185244
945.8  32.565085
945.6  31.945963
945.4  32.410552
945.2  31.48385
945  30.567842
944.8  30.252324
944.6  30.0159
944.4  31.358156
944.2  30.098426
944  29.07044
943.8  30.065218
943.6  29.000968
943.4  29.257679
943.2  28.190667
943  28.082904
942.8  27.676945
942.6  27.907016
942.4  27.604168
942.2  26.987616
942  26.409972
941.8  24.948069
941.6  25.474689
941.4  24.626236
941.2  24.998611
941  25.130621
940.8  25.218048
940.6  25.57059
940.4  25.750422
940.2  26.306232
940  25.981652
939.8  25.911976
939.6  27.159738
939.4  26.026981
939.2  25.625284
939  25.559414
938.8  26.123341
938.6  26.682981
938.4  26.67055
938.2  26.958296
938  26.889534
937.8  27.220317
937.6  26.584745
937.4  27.033849
937.2  27.696342
937  28.757333
936.8  29.788023
936.6  29.834591
936.4  29.613563
936.2  29.241491
936  29.830018
935.8  30.183999
935.6  30.88747
935.4  31.155916
935.2  31.066834
935  32.869693
934.8  33.937415
934.6  35.859525
934.4  39.549824
934.2  43.989024
934  51.325592
933.8  68.888872
933.6  100.94011
933.4  161.96684
933.2  263.59163
933  409.22818
932.8  494.94556
932.6  430.06507
932.4  278.41213
932.2  148.33166
932  83.59366
931.8  53.639305
931.6  39.173193
931.4  32.504041
931.2  28.126384
931  24.669932
930.8  22.590886
930.6  21.14499
930.4  20.217945
930.2  19.231114
930  19.172311
929.8  18.05151
929.6  17.951889
929.4  17.362647
929.2  17.433934
929  16.846824
928.8  16.211681
928.6  16.071411
928.4  16.099255
928.2  15.640202
928  16.384426
927.8  15.779713
927.6  15.598953
927.4  15.771564
927.2  15.602647
927  15.468207
926.8  15.492937
926.6  15.534672
926.4  15.627062
926.2  15.189372
926  15.670707
925.8  15.494521
925.6  15.545957
925.4  15.701202
925.2  15.751249
925  15.611725
924.8  15.315526
924.6  15.340885
924.4  15.802129
924.2  15.710766
924  14.901706
923.8  14.902096
923.6  14.939283
923.4  15.363034
923.2  15.339109
923  15.0143
922.8  15.178831
922.6  15.228225
922.4  15.331135
922.2  15.276687
922  15.571616
921.8  15.128585
921.6  15.567123
921.4  15.214884
921.2  14.825342
921  15.238639
920.8  15.230225
920.6  15.08093
920.4  15.247557
920.2  15.170937
920  15.719812
919.8  15.931521
919.6  15.742431
919.4  15.204105
919.2  15.964832
919  15.293948
918.8  15.176019
918.6  15.192246
918.4  15.24431
918.2  15.765162
918  15.326845
917.8  15.239782
917.6  14.973553
917.4  15.59846
917.2  15.287216
917  15.716562
916.8  15.387899
916.6  15.603652
916.4  15.352193
916.2  15.179401
916  15.373918
915.8  15.356357
915.6  15.190777
915.4  15.898001
915.2  15.612335
915  15.574897
914.8  15.929933
914.6  15.469304
914.4  15.985464
914.2  16.141515
914  15.206079
913.8  15.915789
913.6  16.068658
913.4  15.94805
913.2  15.757968
913  15.317122
912.8  15.428264
912.6  15.419053
912.4  15.82459
912.2  15.327714
912  15.211466
911.8  15.316318
911.6  15.43219
911.4  15.833451
911.2  15.710767
911  15.162011
910.8  15.622153
910.6  15.748475
910.4  15.72696
910.2  15.604322
910  15.602341
909.8  15.31018
909.6  15.533755
909.4  15.800583
909.2  15.929896
909  15.186409
908.8  14.982153
908.6  15.40848
908.4  15.709342
908.2  15.761809
908  15.518844
907.8  16.095309
907.6  15.967481
907.4  15.662986
907.2  15.670736
907  15.092822
906.8  15.896744
906.6  15.801053
906.4  16.040755
906.2  16.041184
906  15.246796
905.8  15.628873
905.6  15.940591
905.4  15.615843
905.2  15.591493
905  16.273647
904.8  15.712645
904.6  15.525014
904.4  15.778277
904.2  15.879082
904  16.169867
903.8  15.816342
903.6  16.053032
903.4  16.09531
903.2  16.297514
903  15.810483
902.8  16.039519
902.6  15.588579
902.4  16.148865
902.2  15.580906
902  15.35933
901.8  15.816903
901.6  16.201375
901.4  16.357703
901.2  15.450952
901  15.510118
900.8  15.924996
900.6  16.47424
900.4  16.467908
900.2  16.033942
900  16.054031
899.8  15.497998
899.6  15.433922
899.4  15.604338
899.2  15.364772
899  16.587489
898.8  16.354316
898.6  16.258454
898.4  15.936875
898.2  16.151257
898  16.652457
897.8  16.594632
897.6  15.712127
897.4  15.912175
897.2  15.858575
897  16.361112
896.8  16.594233
896.6  15.99885
896.4  16.044234
896.2  15.581483
896  16.361168
895.8  15.76317
895.6  16.396365
895.4  16.371752
895.2  16.298005
895  16.738192
894.8  16.606785
894.6  16.238813
894.4  16.537904
894.2  17.016947
894  16.271456
893.8  16.390753
893.6  16.32816
893.4  16.134144
893.2  16.150876
893  15.950788
892.8  16.575033
892.6  16.292949
892.4  16.139816
892.2  16.808143
892  16.481658
891.8  16.210361
891.6  16.143291
891.4  16.473785
891.2  16.090741
891  16.16929
890.8  16.547679
890.6  15.753353
890.4  16.311793
890.2  16.540358
890  16.419674
889.8  16.497031
889.6  16.308903
889.4  16.662022
889.2  16.566888
889  16.754053
888.8  16.353476
888.6  16.3709
888.4  16.898006
888.2  16.637386
888  16.17158
887.8  16.522011
887.6  16.546812
887.4  16.457611
887.2  16.875014
887  16.308971
886.8  16.549736
886.6  16.971378
886.4  16.23352
886.2  16.768495
886  16.680676
885.8  16.457921
885.6  16.89833
885.4  16.692057
885.2  16.952463
885  16.745887
884.8  16.189204
884.6  16.944512
884.4  16.386125
884.2  16.198199
884  17.038564
883.8  16.855471
883.6  16.971147
883.4  17.107733
883.2  17.078969
883  17.256278
882.8  17.174845
882.6  16.732403
882.4  17.007995
882.2  17.316576
882  17.328381
881.8  17.275448
881.6  17.11968
881.4  16.866855
881.2  17.004918
881  16.719006
880.8  16.791041
880.6  16.685849
880.4  16.995684
880.2  17.817907
880  17.562924
879.8  17.551826
879.6  17.57752
879.4  17.417983
879.2  17.080378
879  17.468182
878.8  17.267517
878.6  17.339612
878.4  17.346693
878.2  17.532471
878  16.91767
877.8  16.759065
877.6  16.206897
877.4  15.905124
877.2  16.598313
877  17.188927
876.8  16.918146
876.6  16.937975
876.4  17.095306
876.2  17.208553
876  17.026551
875.8  17.235648
875.6  17.251327
875.4  17.48209
875.2  17.686898
875  17.798206
874.8  17.470835
874.6  17.469614
874.4  17.53744
874.2  17.830816
874  17.973911
873.8  17.421071
873.6  17.569879
873.4  17.374924
873.2  17.098496
873  17.808221
872.8  17.802537
872.6  18.048292
872.4  17.741758
872.2  17.597672
872  17.671728
871.8  18.019441
871.6  18.120901
871.4  18.159707
871.2  17.866802
871  17.82426
870.8  17.524469
870.6  17.632134
870.4  17.34267
870.2  17.986693
870  17.371348
869.8  17.577242
869.6  17.632672
869.4  17.714421
869.2  17.701728
869  17.630317
868.8  17.859399
868.6  17.566778
868.4  17.724398
868.2  17.463047
868  17.310662
867.8  17.526164
867.6  17.474433
867.4  18.192516
867.2  17.38043
867  17.698285
866.8  17.484737
866.6  17.662317
866.4  17.269476
866.2  17.63483
866  18.033384
865.8  17.870346
865.6  17.717695
865.4  18.037023
865.2  17.749342
865  17.561888
864.8  17.886617
864.6  18.294601
864.4  18.104402
864.2  17.649506
864  18.298648
863.8  18.038408
863.6  17.791374
863.4  18.156761
863.2  17.98696
863  17.965597
862.8  17.932223
862.6  17.615727
862.4  17.884313
862.2  18.20084
862  17.905182
861.8  17.825672
861.6  17.899244
861.4  18.153382
861.2  18.652331
861  18.285978
860.8  18.371517
860.6  18.84781
860.4  18.838628
860.2  18.049452
860  18.072952
859.8  18.374369
859.6  18.023589
859.4  18.451338
859.2  18.331447
859  18.388216
858.8  19.162117
858.6  18.40309
858.4  17.950207
858.2  18.016416
858  18.334907
857.8  17.753038
857.6  18.477728
857.4  18.892436
857.2  18.142591
857  18.122468
856.8  18.751175
856.6  19.523042
856.4  18.307871
856.2  17.971281
856  18.615017
855.8  18.885491
855.6  18.21571
855.4  18.300554
855.2  19.015255
855  18.862605
854.8  18.218952
854.6  18.627528
854.4  18.261056
854.2  18.248589
854  18.863033
853.8  18.666767
853.6  18.878251
853.4  18.93621
853.2  19.26373
853  18.338851
852.8  18.355417
852.6  18.428855
852.4  19.240818
852.2  19.219061
852  18.847627
851.8  18.722902
851.6  19.128283
851.4  18.448929
851.2  19.031447
851  18.763791
850.8  19.514263
850.6  19.184648
850.4  19.212656
850.2  19.152614
850  18.815402
849.8  19.368825
849.6  19.329806
849.4  18.614219
849.2  18.570841
849  18.676811
848.8  18.777398
848.6  19.30438
848.4  18.503411
848.2  19.244198
848  19.181318
847.8  19.349212
847.6  19.520303
847.4  19.03724
847.2  18.820859
847  18.465939
846.8  19.552169
846.6  19.124879
846.4  18.824408
846.2  19.204911
846  19.742087
845.8  19.362439
845.6  18.908529
845.4  19.275818
845.2  19.719966
845  19.540628
844.8  19.239252
844.6  18.585859
844.4  18.805092
844.2  19.036572
844  18.742529
843.8  19.617895
843.6  19.262305
843.4  19.381133
843.2  19.40838
843  19.40067
842.8  19.7791
842.6  19.665013
842.4  19.592613
842.2  19.638011
842  20.239585
841.8  19.648372
841.6  19.224461
841.4  19.411541
841.2  18.990851
841  19.462001
840.8  19.410817
840.6  19.216076
840.4  19.167711
840.2  19.867025
840  19.640634
839.8  19.959134
839.6  19.505413
839.4  19.782237
839.2  19.448531
839  19.124267
838.8  19.597637
838.6  19.986486
838.4  19.406811
838.2  19.721342
838  20.192263
837.8  19.631886
837.6  19.750197
837.4  20.017092
837.2  19.863974
837  19.241507
836.8  20.454997
836.6  20.27952
836.4  20.251275
836.2  19.273794
836  20.223861
835.8  19.697515
835.6  20.067968
835.4  19.8841
835.2  20.38285
835  20.692993
834.8  20.294419
834.6  19.790659
834.4  19.49703
834.2  19.595392
834  19.707088
833.8  20.200766
833.6  20.140564
833.4  20.375093
833.2  20.026423
833  19.679231
832.8  20.092189
832.6  20.145217
832.4  20.127081
832.2  20.433517
832  21.159749
831.8  20.779073
831.6  20.795515
831.4  20.33732
831.2  20.055568
831  19.873676
830.8  20.034532
830.6  20.615891
830.4  20.462821
830.2  20.788055
830  20.169565
829.8  20.352621
829.6  20.591648
829.4  21.03491
829.2  21.278038
829  20.379122
828.8  20.753894
828.6  20.792247
828.4  20.429069
828.2  20.831717
828  20.913804
827.8  20.235581
827.6  20.609252
827.4  20.923057
827.2  20.49542
827  20.465284
826.8  20.229762
826.6  20.465572
826.4  20.64579
826.2  20.619787
826  20.42977
825.8  20.233874
825.6  20.713321
825.4  20.452636
825.2  20.994761
825  20.517408
824.8  20.337668
824.6  21.782462
824.4  21.325977
824.2  20.659908
824  20.477063
823.8  21.110546
823.6  21.353194
823.4  21.527601
823.2  21.267592
823  20.947736
822.8  21.101637
822.6  21.36001
822.4  20.97269
822.2  21.248559
822  21.209884
821.8  21.171895
821.6  21.253085
821.4  21.636131
821.2  21.074735
821  21.252605
820.8  20.943687
820.6  20.745775
820.4  20.654588
820.2  20.826566
820  21.434517
819.8  21.348549
819.6  21.717531
819.4  21.06272
819.2  21.276714
819  21.039533
818.8  21.317745
818.6  21.67058
818.4  20.916695
818.2  21.203065
818  21.156433
817.8  21.128783
817.6  21.753871
817.4  21.623674
817.2  21.996281
817  22.256628
816.8  21.070956
816.6  21.864465
816.4  22.026251
816.2  22.207637
816  21.862704
815.8  22.051421
815.6  22.461672
815.4  21.558046
815.2  22.184255
815  21.594227
814.8  21.892622
814.6  21.84403
814.4  22.074747
814.2  22.069211
814  21.974697
813.8  21.838839
813.6  22.452556
813.4  21.707338
813.2  22.101666
813  21.749545
812.8  22.289562
812.6  21.579877
812.4  22.252758
812.2  21.628046
812  21.544995
811.8  21.271622
811.6  21.978612
811.4  22.260869
811.2  22.173238
811  21.97947
810.8  22.114998
810.6  21.88222
810.4  22.290718
810.2  22.080657
810  22.516823
809.8  21.973467
809.6  21.864514
809.4  21.622783
809.2  22.105934
809  21.931496
808.8  21.810592
808.6  22.095247
808.4  22.521074
808.2  21.741917
808  21.748278
807.8  21.982928
807.6  22.352104
807.4  22.669292
807.2  22.624952
807  22.463998
806.8  22.29689
806.6  22.596382
806.4  21.834961
806.2  22.537027
806  22.477853
805.8  22.061414
805.6  22.161207
805.4  22.500445
805.2  22.228621
805  22.952926
804.8  22.763727
804.6  22.633965
804.4  22.355177
804.2  22.338219
804  22.151017
803.8  22.822897
803.6  22.874538
803.4  23.066896
803.2  23.106648
803  22.942613
802.8  22.445492
802.6  23.102791
802.4  22.361372
802.2  22.658254
802  22.127903
801.8  22.4962
801.6  22.377424
801.4  23.003618
801.2  22.804715
801  22.979413
800.8  23.078672
800.6  23.024297
800.4  22.378094
800.2  22.500662
800  23.198542
799.8  23.238136
799.6  22.827082
799.4  22.873407
799.2  23.600129
799  23.374437
798.8  22.8623
798.6  23.111033
798.4  22.926681
798.2  22.991411
798  23.468458
797.8  23.19003
797.6  23.77046
797.4  23.183794
797.2  23.419583
797  23.206817
796.8  23.135654
796.6  23.172296
796.4  22.914158
796.2  23.204776
796  23.669611
795.8  23.153792
795.6  23.198809
795.4  23.150234
795.2  23.193693
795  23.456539
794.8  24.132979
794.6  24.037627
794.4  23.566603
794.2  23.352859
794  22.936427
793.8  23.22189
793.6  23.180826
793.4  23.45033
793.2  23.710011
793  23.414865
792.8  23.090225
792.6  23.643216
792.4  23.574216
792.2  23.166874
792  23.335179
791.8  23.957021
791.6  23.81619
791.4  23.313391
791.2  23.989275
791  24.07302
790.8  23.546585
790.6  23.834367
790.4  24.523694
790.2  23.803377
790  24.307014
789.8  24.684157
789.6  24.394536
789.4  23.887012
789.2  24.223763
789  23.639801
788.8  24.087769
788.6  24.523907
788.4  23.994416
788.2  24.891341
788  24.095635
787.8  23.555796
787.6  23.831805
787.4  23.530614
787.2  24.496129
787  23.976226
786.8  24.41154
786.6  24.441425
786.4  24.669147
786.2  24.108918
786  23.774287
785.8  24.162787
785.6  24.346905
785.4  24.379472
785.2  24.184174
785  24.077501
784.8  23.903265
784.6  24.787255
784.4  24.880569
784.2  24.633838
784  24.025666
783.8  24.304121
783.6  24.91304
783.4  24.599304
783.2  24.022645
783  25.194241
782.8  24.814937
782.6  24.620674
782.4  24.067211
782.2  24.547542
782  25.017878
781.8  24.692024
781.6  24.457902
781.4  24.709024
781.2  24.648497
781  24.942187
780.8  25.118871
780.6  24.796258
780.4  24.824991
780.2  24.723242
780  24.197361
779.8  24.326083
779.6  25.306052
779.4  25.113662
779.2  24.01186
779  23.920302
778.8  24.839344
778.6  24.540288
778.4  25.353132
778.2  25.723707
778  25.538184
777.8  25.243711
777.6  25.533286
777.4  25.889405
777.2  25.076808
777  25.331844
776.8  25.71973
776.6  25.010549
776.4  25.672937
776.2  25.893853
776  25.663988
775.8  25.491232
775.6  26.057023
775.4  26.208628
775.2  25.748299
775  25.160593
774.8  25.04333
774.6  25.413652
774.4  25.619146
774.2  25.785369
774  25.442918
773.8  25.34338
773.6  25.963593
773.4  25.359758
773.2  26.628385
773  26.304964
772.8  25.334185
772.6  25.656225
772.4  25.644724
772.2  26.331999
772  25.340379
771.8  25.360516
771.6  25.738837
771.4  26.167528
771.2  26.303229
771  25.936193
770.8  25.841881
770.6  26.776378
770.4  26.915542
770.2  26.427565
770  26.388759
769.8  25.963518
769.6  26.457966
769.4  26.778232
769.2  26.698458
769  25.729822
768.8  26.325432
768.6  26.453089
768.4  26.193628
768.2  26.822439
768  26.959151
767.8  26.968958
767.6  26.251515
767.4  26.04925
767.2  26.777058
767  26.287666
766.8  25.968501
766.6  26.111579
766.4  26.233793
766.2  25.56715
766  26.088858
765.8  26.263971
765.6  26.229271
765.4  26.407974
765.2  26.011129
765  26.188253
764.8  26.375648
764.6  25.263144
764.4  26.148923
764.2  26.510336
764  25.946673
763.8  26.185877
763.6  25.431038
763.4  26.163616
763.2  26.862458
763  25.911577
762.8  25.753633
762.6  26.299326
762.4  26.249447
762.2  26.810076
762  26.197509
761.8  26.238679
761.6  26.020096
761.4  26.007937
761.2  26.626107
761  26.5546
760.8  26.698741
760.6  26.963557
760.4  26.341823
760.2  26.659506
760  26.812293
759.8  26.707538
759.6  27.372131
759.4  26.615769
759.2  26.390804
759  26.555581
758.8  27.388795
758.6  26.836197
758.4  26.546905
758.2  28.272593
758  28.257234
757.8  27.77154
757.6  28.163126
757.4  27.588274
757.2  26.942167
757  27.733771
756.8  27.278514
756.6  28.063107
756.4  28.776484
756.2  27.457144
756  27.518238
755.8  27.843143
755.6  28.049721
755.4  28.375842
755.2  28.172391
755  28.113252
754.8  27.770052
754.6  27.119952
754.4  27.55019
754.2  28.099952
754  27.002439
753.8  27.161463
753.6  27.494927
753.4  27.065035
753.2  26.682532
753  27.719388
752.8  27.056032
752.6  26.432427
752.4  26.566581
752.2  27.173073
752  26.87878
751.8  26.797619
751.6  26.360098
751.4  26.519746
751.2  26.777618
751  26.822411
750.8  26.838206
750.6  26.596194
750.4  26.690078
750.2  28.003669
750  27.462644
749.8  27.212539
749.6  27.170471
749.4  26.278872
749.2  26.830159
749  26.48028
748.8  26.697541
748.6  27.063448
748.4  27.296148
748.2  27.754735
748  27.546969
747.8  27.011316
747.6  26.529307
747.4  27.641421
747.2  27.787824
747  27.341019
746.8  27.184233
746.6  27.342283
746.4  27.122687
746.2  27.253693
746  26.989175
745.8  27.542105
745.6  26.737965
745.4  26.565016
745.2  27.268741
745  27.686519
744.8  27.464769
744.6  28.052093
744.4  27.811004
744.2  27.119413
744  27.403649
743.8  27.612699
743.6  27.19577
743.4  26.627974
743.2  27.082037
743  27.397536
742.8  27.359414
742.6  26.814447
742.4  27.221328
742.2  27.972337
742  27.54948
741.8  27.645497
741.6  27.847485
741.4  27.691485
741.2  27.671185
741  27.20024
740.8  28.063039
740.6  28.258669
740.4  27.506281
740.2  27.627199
740  28.069933
739.8  28.406829
739.6  27.993529
739.4  27.570884
739.2  27.186819
739  27.483273
738.8  27.509397
738.6  28.385052
738.4  28.088644
738.2  27.840075
738  28.055814
737.8  27.922374
737.6  28.292862
737.4  28.100927
737.2  28.474433
737  28.859616
736.8  28.616479
736.6  28.309848
736.4  28.252523
736.2  27.371852
736  27.445669
735.8  28.247284
735.6  28.457036
735.4  28.155262
735.2  28.550893
735  28.789502
734.8  29.23102
734.6  28.767009
734.4  28.927457
734.2  29.137643
734  28.382337
733.8  28.699519
733.6  29.011072
733.4  28.72749
733.2  28.739342
733  28.787453
732.8  28.584987
732.6  28.619578
732.4  28.78239
732.2  28.382204
732  28.77421
731.8  28.638019
731.6  29.295317
731.4  28.543005
731.2  29.449618
731  29.448612
730.8  29.429388
730.6  28.540424
730.4  29.102594
730.2  30.146939
730  29.369493
729.8  29.543572
729.6  29.821477
729.4  29.655986
729.2  30.019796
729  30.281229
728.8  30.686517
728.6  30.150247
728.4  30.084913
728.2  29.841932
728  29.952923
727.8  29.953414
727.6  29.739207
727.4  29.26841
727.2  28.481313
727  29.729731
726.8  30.030118
726.6  29.695599
726.4  29.52097
726.2  29.546535
726  29.990019
725.8  29.241775
725.6  28.551593
725.4  29.417598
725.2  30.122442
725  29.45469
724.8  30.416044
724.6  29.132656
724.4  30.122185
724.2  30.283925
724  30.384023
723.8  30.319568
723.6  29.84813
723.4  30.184554
723.2  29.653335
723  30.974458
722.8  31.432683
722.6  31.143982
722.4  30.300385
722.2  30.9811
722  30.435654
721.8  30.694953
721.6  30.922227
721.4  31.621885
721.2  31.488866
721  31.694766
720.8  31.158589
720.6  31.217114
720.4  31.53131
720.2  31.801209
720  31.880216
719.8  32.406879
719.6  31.812452
719.4  32.36445
719.2  32.374245
719  32.026222
718.8  31.226285
718.6  31.06496
718.4  31.81764
718.2  31.494841
718  31.637056
717.8  31.237965
717.6  31.748353
717.4  31.438796
717.2  30.693574
717  30.560002
716.8  31.168124
716.6  30.632638
716.4  30.566993
716.2  30.210179
716  30.576692
715.8  30.43199
715.6  30.522049
715.4  30.638019
715.2  30.093707
715  30.124825
714.8  29.958563
714.6  29.595947
714.4  30.166923
714.2  29.923446
714  29.808915
713.8  30.01722
713.6  29.614085
713.4  30.071461
713.2  30.14985
713  30.169572
712.8  31.046108
712.6  30.245611
712.4  30.478805
712.2  30.806474
712  30.867782
711.8  29.968954
711.6  30.197779
711.4  29.278319
711.2  29.085876
711  29.995346
710.8  29.175272
710.6  28.773446
710.4  28.612373
710.2  28.301183
710  27.78694
709.8  27.451069
709.6  27.346629
709.4  27.576473
709.2  26.990614
709  26.437813
708.8  26.074346
708.6  26.140061
708.4  25.818548
708.2  25.841703
708  25.416626
707.8  24.688015
707.6  24.759028
707.4  25.328476
707.2  24.789758
707  24.595139
706.8  24.326616
706.6  24.409158
706.4  24.200219
706.2  24.657932
706  24.169095
705.8  24.608333
705.6  24.098984
705.4  24.010417
705.2  24.154868
705  23.511859
704.8  23.725903
704.6  24.295715
704.4  24.378867
704.2  24.185109
704  24.117742
703.8  23.806692
703.6  23.36216
703.4  23.516058
703.2  23.659893
703  23.945764
702.8  23.646108
702.6  22.813559
702.4  23.659967
702.2  23.681503
702  23.494197
701.8  23.794344
701.6  23.789054
701.4  23.916566
701.2  23.545513
701  24.083225
700.8  23.670599
700.6  23.852974
700.4  23.784521
700.2  23.51174
700  24.02212
699.8  23.560833
699.6  23.051327
699.4  23.30927
699.2  24.395481
699  23.550693
698.8  23.326017
698.6  23.753044
698.4  23.443373
698.2  23.488934
698  23.921498
697.8  23.673961
697.6  24.096782
697.4  23.925926
697.2  24.356935
697  23.689631
696.8  23.331717
696.6  23.252817
696.4  22.86946
696.2  22.808562
696  23.5279
695.8  23.99802
695.6  24.321866
695.4  23.798594
695.2  23.019755
695  22.93501
694.8  23.48336
694.6  23.137111
694.4  23.044574
694.2  23.676195
694  23.670396
693.8  23.314549
693.6  23.568848
693.4  23.75994
693.2  23.667759
693  23.015561
692.8  22.840019
692.6  23.595897
692.4  22.904181
692.2  23.282619
692  22.97581
691.8  23.240316
691.6  23.058062
691.4  23.178669
691.2  23.336574
691  23.381124
690.8  23.636666
690.6  23.060722
690.4  23.07019
690.2  22.792853
690  23.035792
689.8  22.937668
689.6  23.150688
689.4  23.75615
689.2  23.138829
689  23.207192
688.8  23.57586
688.6  23.794152
688.4  23.89685
688.2  23.957382
688  23.739432
687.8  23.422917
687.6  22.624996
687.4  22.518302
687.2  22.276715
687  22.108792
686.8  22.693657
686.6  22.165217
686.4  23.140237
686.2  22.698135
686  22.542632
685.8  23.073469
685.6  23.599404
685.4  23.195246
685.2  22.926071
685  22.309808
684.8  22.015753
684.6  22.181632
684.4  22.245855
684.2  22.180828
684  22.477777
683.8  22.062685
683.6  22.085867
683.4  21.942287
683.2  22.464082
683  22.243465
682.8  22.815771
682.6  21.796454
682.4  22.201576
682.2  22.663161
682  22.532708
681.8  22.712102
681.6  22.023802
681.4  22.429612
681.2  21.349779
681  22.324163
680.8  22.704423
680.6  22.423054
680.4  22.037613
680.2  22.474951
680  22.780698
679.8  23.314792
679.6  22.625012
679.4  22.978536
679.2  21.700298
679  22.74261
678.8  23.076639
678.6  22.945517
678.4  23.070765
678.2  23.330559
678  23.587068
677.8  22.988123
677.6  22.994622
677.4  23.366771
677.2  23.409986
677  23.703913
676.8  23.935875
676.6  23.115907
676.4  23.001616
676.2  22.993242
676  23.348417
675.8  23.282545
675.6  23.109573
675.4  23.168838
675.2  23.339349
675  23.317894
674.8  22.7455
674.6  22.717894
674.4  23.622977
674.2  24.074583
674  23.612068
673.8  23.343617
673.6  23.636229
673.4  23.689885
673.2  24.01809
673  23.599878
672.8  23.659599
672.6  24.026385
672.4  23.749078
672.2  23.873794
672  23.267177
671.8  23.577936
671.6  23.382601
671.4  23.474703
671.2  23.966718
671  23.99476
670.8  24.014245
670.6  23.682907
670.4  23.315954
670.2  23.722851
670  24.996155
669.8  24.770974
669.6  24.439531
669.4  24.230868
669.2  24.403444
669  24.267097
668.8  24.543083
668.6  24.441663
668.4  24.171925
668.2  24.29327
668  24.658447
667.8  23.649738
667.6  23.962112
667.4  24.454905
667.2  24.158038
667  24.872237
666.8  24.778028
666.6  24.384627
666.4  24.580064
666.2  23.765907
666  24.006535
665.8  24.391523
665.6  24.343952
665.4  24.002389
665.2  24.642911
665  24.5773
664.8  24.944718
664.6  24.530912
664.4  24.349704
664.2  24.462607
664  24.503606
663.8  24.746711
663.6  24.672543
663.4  24.693743
663.2  25.116129
663  24.755587
662.8  23.930601
662.6  24.875473
662.4  23.647224
662.2  24.799841
662  25.095907
661.8  24.93844
661.6  24.639101
661.4  25.137273
661.2  24.826038
661  25.160934
660.8  24.590546
660.6  25.244462
660.4  25.549855
660.2  24.907769
660  24.666905
659.8  25.123774
659.6  25.045857
659.4  24.294438
659.2  25.056362
659  25.077393
658.8  25.544632
658.6  25.537598
658.4  26.043533
658.2  26.143937
658  26.469807
657.8  26.64039
657.6  26.732758
657.4  25.539363
657.2  25.908597
657  26.123563
656.8  26.726633
656.6  26.549322
656.4  26.740284
656.2  27.028738
656  27.277124
655.8  27.028219
655.6  27.335465
655.4  27.384693
655.2  27.087904
655  27.027821
654.8  27.685875
654.6  27.438227
654.4  26.111713
654.2  26.782014
654  26.568759
653.8  26.778988
653.6  27.339321
653.4  27.512478
653.2  27.18843
653  27.46637
652.8  26.476043
652.6  27.257785
652.4  27.037171
652.2  26.823864
652  26.981858
651.8  27.154035
651.6  27.084083
651.4  27.279099
651.2  28.00581
651  28.058085
650.8  27.437469
650.6  27.676016
650.4  27.503303
650.2  28.43296
650  28.84856
649.8  28.70813
649.6  29.247073
649.4  30.322153
649.2  30.651642
649  31.47816
648.8  32.957726
648.6  33.059383
648.4  33.915362
648.2  34.115423
648  34.644776
647.8  34.48419
647.6  34.2789
647.4  34.024577
647.2  33.62017
647  33.855085
646.8  32.734521
646.6  31.420339
646.4  31.172001
646.2  29.332293
646  29.036198
645.8  28.210434
645.6  27.602593
645.4  26.930058
645.2  26.979778
645  25.679663
644.8  25.606589
644.6  25.963241
644.4  26.008166
644.2  25.305488
644  25.355604
643.8  24.766108
643.6  24.287226
643.4  24.277656
643.2  23.891617
643  24.684019
642.8  24.110733
642.6  24.23804
642.4  25.033162
642.2  24.843196
642  24.797771
641.8  25.294689
641.6  25.108681
641.4  25.084858
641.2  24.735292
641  25.26482
640.8  25.660014
640.6  25.876024
640.4  26.412765
640.2  26.476447
640  27.052558
639.8  26.953232
639.6  27.396262
639.4  26.664282
639.2  26.420406
639  26.254502
638.8  25.616993
638.6  25.157161
638.4  23.842572
638.2  23.449102
638  23.432605
637.8  22.898562
637.6  22.249378
637.4  22.130517
637.2  21.678046
637  21.509649
636.8  21.817796
636.6  20.90898
636.4  21.286863
636.2  20.91262
636  20.448842
635.8  20.50502
635.6  20.419121
635.4  19.788365
635.2  19.747976
635  19.505596
634.8  19.344263
634.6  18.981414
634.4  18.694527
634.2  18.68995
634  18.520282
633.8  18.070974
633.6  18.597182
633.4  18.322759
633.2  17.85388
633  17.66838
632.8  17.507257
632.6  17.545515
632.4  17.496551
632.2  17.567978
632  17.690532
631.8  17.491682
631.6  17.287089
631.4  18.175339
631.2  17.915482
631  17.376251
630.8  17.886166
630.6  17.894838
630.4  17.946609
630.2  17.792199
630  17.595945
629.8  17.526394
629.6  17.798033
629.4  17.830481
629.2  17.361096
629  18.466299
628.8  18.420326
628.6  17.744585
628.4  17.721069
628.2  18.726487
628  18.215429
627.8  17.638154
627.6  17.72683
627.4  18.138794
627.2  17.701481
627  17.404639
626.8  17.896673
626.6  17.386296
626.4  17.552327
626.2  17.059126
626  17.090666
625.8  16.590091
625.6  16.271316
625.4  15.774074
625.2  16.062936
625  15.985144
624.8  16.110695
624.6  16.280355
624.4  16.55001
624.2  16.199395
624  15.755052
623.8  16.178985
623.6  15.745753
623.4  15.551395
623.2  15.673079
623  15.444925
622.8  15.056498
622.6  15.760369
622.4  15.727128
622.2  15.948072
622  15.791899
621.8  15.406808
621.6  15.514608
621.4  15.708553
621.2  15.68571
621  15.614359
620.8  15.656446
620.6  15.575026
620.4  15.752853
620.2  15.122499
620  15.616331
619.8  15.884936
619.6  15.436927
619.4  15.41944
619.2  15.477772
619  15.290915
618.8  15.716244
618.6  14.990383
618.4  15.179625
618.2  15.282947
618  14.808226
617.8  15.02818
617.6  15.387351
617.4  15.294168
617.2  15.606158
617  15.339884
616.8  15.019986
616.6  14.968603
616.4  15.577232
616.2  15.248393
616  15.159376
615.8  14.648254
615.6  14.827355
615.4  14.598889
615.2  14.801615
615  15.004529
614.8  14.592483
614.6  14.604045
614.4  14.947838
614.2  15.047623
614  15.047567
613.8  15.25742
613.6  15.598975
613.4  14.711634
613.2  15.053725
613  15.548194
612.8  15.106907
612.6  14.633012
612.4  15.062464
612.2  14.954906
612  14.817577
611.8  14.578853
611.6  14.893365
611.4  15.240366
611.2  15.244876
611  15.139858
610.8  15.052142
610.6  15.277682
610.4  15.49755
610.2  15.391013
610  15.076813
609.8  15.064395
609.6  15.033639
609.4  14.901077
609.2  14.704461
609  15.31579
608.8  15.580683
608.6  15.624452
608.4  14.727707
608.2  15.221525
608  15.487998
607.8  15.023208
607.6  15.399884
607.4  15.719259
607.2  15.497509
607  15.633413
606.8  16.277546
606.6  15.166117
606.4  15.5608
606.2  15.655379
606  16.317781
605.8  16.17864
605.6  16.291959
605.4  15.804984
605.2  15.468154
605  15.545927
604.8  16.013147
604.6  16.132048
604.4  15.493331
604.2  15.651323
604  15.946644
603.8  15.831381
603.6  16.13945
603.4  15.798648
603.2  16.147395
603  16.166048
602.8  15.917161
602.6  15.197498
602.4  15.640648
602.2  15.749912
602  15.83809
601.8  16.078997
601.6  16.567887
601.4  16.126327
601.2  16.543893
601  16.269563
600.8  16.092852
600.6  16.536955
600.4  16.238121
600.2  17.345968
600  16.19405
599.8  16.362036
599.6  16.450244
599.4  16.777695
599.2  16.427179
599  16.570188
598.8  17.524994
598.6  17.501703
598.4  17.266751
598.2  16.822994
598  16.614974
597.8  16.135955
597.6  17.26098
597.4  17.637754
597.2  17.5807
597  17.729994
596.8  17.666893
596.6  18.185173
596.4  17.879795
596.2  17.195551
596  17.070264
595.8  17.626833
595.6  17.601219
595.4  18.028919
595.2  17.722336
595  18.013069
594.8  17.802722
594.6  17.46377
594.4  17.909927
594.2  17.609514
594  18.201875
593.8  18.307385
593.6  18.716305
593.4  17.854677
593.2  17.869344
593  17.791253
592.8  17.666879
592.6  18.29576
592.4  18.033664
592.2  17.689076
592  17.882106
591.8  18.679369
591.6  19.057574
591.4  18.044726
591.2  18.457139
591  17.977375
590.8  18.024368
590.6  18.749176
590.4  18.21129
590.2  18.304954
590  18.235509
589.8  17.73573
589.6  17.530847
589.4  18.239843
589.2  17.934526
589  17.951486
588.8  18.495793
588.6  18.520993
588.4  18.158016
588.2  17.917049
588  18.433027
587.8  18.455929
587.6  18.220568
587.4  18.8137
587.2  18.654586
587  17.939759
586.8  18.574908
586.6  17.914232
586.4  18.556639
586.2  18.024367
586  17.963172
585.8  18.00189
585.6  17.812201
585.4  18.096305
585.2  17.877896
585  17.625456
584.8  18.22636
584.6  17.92842
584.4  17.996626
584.2  17.680529
584  17.356363
583.8  17.561129
583.6  17.766914
583.4  17.885725
583.2  17.930448
583  18.127268
582.8  18.523404
582.6  17.66093
582.4  17.222136
582.2  17.862423
582  18.035427
581.8  17.854716
581.6  17.327483
581.4  17.658972
581.2  18.1752
581  18.328857
580.8  18.412905
580.6  18.580656
580.4  18.47442
580.2  18.60039
580  18.221262
579.8  18.345696
579.6  18.700944
579.4  19.155913
579.2  18.885867
579  19.35466
578.8  19.344036
578.6  19.094379
578.4  19.053939
578.2  19.646671
578  19.795894
577.8  19.58338
577.6  19.855784
577.4  19.964848
577.2  19.703445
577  19.870713
576.8  19.965932
576.6  20.286102
576.4  21.068945
576.2  20.805588
576  20.846649
575.8  20.346546
575.6  21.289068
575.4  21.082109
575.2  21.214606
575  21.371836
574.8  21.310325
574.6  22.173756
574.4  22.425285
574.2  22.617438
574  23.491623
573.8  24.845773
573.6  25.690628
573.4  26.180282
573.2  26.957623
573  26.795938
572.8  27.400295
572.6  27.534855
572.4  27.929743
572.2  28.052884
572  27.553063
571.8  26.848575
571.6  25.750698
571.4  26.648219
571.2  27.962283
571  29.008878
570.8  29.725196
570.6  29.632551
570.4  30.724386
570.2  29.865793
570  29.699379
569.8  29.440603
569.6  29.298292
569.4  31.906425
569.2  32.819446
569  36.446636
568.8  43.078901
568.6  50.688215
568.4  60.503978
568.2  68.08775
568  67.882591
567.8  59.852958
567.6  48.591857
567.4  38.057555
567.2  32.255004
567  29.104463
566.8  26.158419
566.6  23.528004
566.4  21.072527
566.2  20.410767
566  20.786531
565.8  21.565687
565.6  22.439286
565.4  21.986162
565.2  21.21462
565  18.996319
564.8  16.521175
564.6  15.065406
564.4  13.532315
564.2  12.353264
564  11.820792
563.8  11.622756
563.6  11.326287
563.4  11.02766
563.2  10.473946
563  10.956826
562.8  10.543327
562.6  10.628705
562.4  10.421858
562.2  10.327469
562  10.181312
561.8  10.029374
561.6  10.144492
561.4  10.186664
561.2  9.6404781
561  9.3452162
560.8  9.7410993
560.6  10.151694
560.4  9.9665826
560.2  9.6609756
560  9.8570247
559.8  9.5926729
559.6  9.2110448
559.4  9.5078263
559.2  9.8593632
559  8.9170762
558.8  8.6914101
558.6  8.6787583
558.4  9.1344241
558.2  8.7822166
558  8.2591162
557.8  8.4281506
557.6  8.4713847
557.4  8.4080167
557.2  8.4977047
557  8.1511972
556.8  8.3360427
556.6  8.4272769
556.4  8.6018147
556.2  8.0598387
556  7.8831058
555.8  7.3920227
555.6  7.5316715
555.4  7.6145451
555.2  7.778201
555  8.1515523
554.8  7.6031187
554.6  8.1513786
554.4  8.5991957
554.2  8.0237798
554  8.4731611
553.8  8.220603
553.6  8.2837661
553.4  8.4252703
553.2  8.4594753
553  8.6072066
552.8  8.6412174
552.6  8.7010355
552.4  9.0197924
552.2  9.4125075
552  9.4003092
551.8  8.8775987
551.6  8.582558
551.4  8.4591999
551.2  8.7165677
551  8.1577388
550.8  7.5549086
550.6  7.4657288
550.4  7.3663424
550.2  7.1552452
550  7.4278869
549.8  7.507534
549.6  7.6493252
549.4  7.8483929
549.2  8.5327425
549  9.5636903
548.8  9.9795996
548.6  10.531787
548.4  10.644865
548.2  10.897903
548  10.668866
547.8  9.2890342
547.6  8.3967487
547.4  8.3104126
547.2  7.7248716
547  7.0447568
546.8  6.8730995
546.6  6.2846862
546.4  6.256019
546.2  6.195548
546  5.8168284
545.8  5.5659696
545.6  5.5756537
545.4  5.6123829
545.2  5.2740377
545  5.0775255
544.8  4.7091563
544.6  4.7176095
544.4  4.6808731
544.2  4.3405654
544  4.4056025
543.8  4.6759047
543.6  4.4885038
543.4  4.2518733
543.2  4.2228143
543  4.4166793
542.8  4.1004965
542.6  4.1149903
542.4  4.1435937
542.2  3.9987557
542  3.8625919
541.8  4.0913119
541.6  4.1043061
541.4  3.9281389
541.2  4.147076
541  4.0410476
540.8  3.8732758
540.6  3.6658122
540.4  3.9667683
540.2  3.9208077
540  3.6770866
539.8  4.0140835
539.6  3.8349365
539.4  3.8802362
539.2  3.8373099
539  4.0271675
538.8  3.9102273
538.6  3.7828318
538.4  3.6759136
538.2  3.6862753
538  3.8272552
537.8  3.6057792
537.6  3.6429907
537.4  3.635703
537.2  3.6990036
537  3.4743438
536.8  3.6418748
536.6  3.61971
536.4  3.5226128
536.2  3.450899
536  3.3655318
535.8  3.134815
535.6  3.647053
535.4  3.7606273
535.2  3.894922
535  3.6159008
534.8  3.8601493
534.6  4.0113029
534.4  3.7740478
534.2  3.8328472
534  3.9195394
533.8  4.1716809
533.6  4.5249003
533.4  4.4648658
533.2  4.5699013
533  4.6878019
532.8  4.4370857
532.6  4.502109
532.4  4.6329863
532.2  4.8113247
532  4.750774
531.8  4.7117484
531.6  4.8366608
531.4  4.886765
531.2  4.3639961
531  4.1673429
530.8  4.1226548
530.6  3.8751879
530.4  3.7390311
530.2  3.5279352
530  3.4598676
529.8  3.5745446
529.6  3.3691465
529.4  3.1482462
529.2  3.2691253
529  3.22615
528.8  3.3797006
528.6  3.2888682
528.4  3.218684
528.2  3.501353
528  3.3057481
527.8  3.3685196
527.6  3.1805099
527.4  3.5590877
527.2  3.2822402
527  3.339431
526.8  3.287779
526.6  3.2145045
526.4  3.254654
526.2  3.3549374
526  3.4971995
525.8  3.3882228
525.6  3.3711339
525.4  3.48083
525.2  3.3202383
525  3.3095399
524.8  3.4992135
524.6  3.4802
524.4  3.0944758
524.2  2.9647394
524  3.2215433
523.8  3.2725444
523.6  3.2436368
523.4  3.372549
523.2  3.3704014
523  3.2570807
522.8  3.3144689
522.6  3.4348128
522.4  3.2054612
522.2  3.4151479
522  3.300683
521.8  3.499461
521.6  3.2438756
521.4  3.1103699
521.2  3.3699817
521  3.2458338
520.8  3.052781
520.6  3.3071673
520.4  3.2034207
520.2  3.3805241
520  3.3100896
519.8  3.3365459
519.6  3.2390725
519.4  3.1984214
519.2  3.3569697
519  3.2543642
518.8  3.3508682
518.6  3.0738404
518.4  3.2311857
518.2  3.3615858
518  3.1985742
517.8  3.3688279
517.6  3.4184227
517.4  3.4919002
517.2  3.4101531
517  3.2195228
516.8  3.1413707
516.6  3.2629779
516.4  3.2392668
516.2  2.9276818
516  3.2600074
515.8  3.2334869
515.6  3.3211803
515.4  3.1376727
515.2  3.0544954
515  3.1652835
514.8  3.225313
514.6  3.3524925
514.4  3.1511446
514.2  3.3810909
514  3.1363277
513.8  2.9726606
513.6  3.4008902
513.4  3.4664538
513.2  3.2393399
513  3.1581837
512.8  3.021623
512.6  3.1895015
512.4  3.0891733
512.2  3.1323698
512  3.0413273
511.8  3.1528109
511.6  3.192256
511.4  3.21647
511.2  3.3695802
511  3.1540708
510.8  3.2844962
510.6  3.206497
510.4  3.0339622
510.2  3.0438005
510  3.1256734
509.8  3.0302503
509.6  3.2732217
509.4  3.1248238
509.2  3.2833858
509  3.3748105
508.8  3.1807413
508.6  3.3051572
508.4  3.3662212
508.2  3.4120876
508  3.0977986
507.8  3.1264617
507.6  3.0501588
507.4  2.9719863
507.2  3.2293032
507  3.4555233
506.8  3.2084815
506.6  3.3583973
506.4  3.3236248
506.2  3.2379353
506  3.4016109
505.8  3.1519369
505.6  3.4891692
505.4  3.3471755
505.2  3.2754109
505  3.2590701
504.8  3.1088099
504.6  3.2942339
504.4  3.3026063
504.2  3.1964775
504  3.3313499
503.8  3.2791947
503.6  3.0381825
503.4  3.0554352
503.2  3.3743686
503  3.4606024
502.8  3.417192
502.6  3.3574408
502.4  3.3386329
502.2  3.4266431
502  3.0745138
501.8  3.4542054
501.6  3.2466025
501.4  3.3159369
501.2  3.4470924
501  3.4142394
500.8  3.3698118
500.6  3.3685252
500.4  3.3410991
500.2  3.2099027
500  3.1615484
499.8  3.3187336
499.6  3.1598238
499.4  3.3658593
499.2  3.5347151
499  3.2615977
498.8  3.2359559
498.6  3.3604354
498.4  3.0676932
498.2  3.1472931
498  3.1764447
497.8  2.9315733
497.6  3.1778956
497.4  3.2633562
497.2  3.2205092
497  3.158537
496.8  3.199873
496.6  3.1346502
496.4  3.2456871
496.2  3.0200718
496  3.1075417
495.8  3.0487057
495.6  3.1981694
495.4  3.157582
495.2  3.1783275
495  3.5013161
494.8  3.3712842
494.6  3.2518082
494.4  3.2636001
494.2  3.4060024
494  3.4461641
493.8  3.2743639
493.6  3.1972296
493.4  3.3864932
493.2  3.5384868
493  3.2823606
492.8  3.2528206
492.6  3.2416459
492.4  3.2833916
492.2  3.5591601
492  3.4892955
491.8  3.0964018
491.6  3.2469224
491.4  3.2195919
491.2  3.266871
491  3.0792331
490.8  3.3051148
490.6  3.47308
490.4  3.2101157
490.2  3.1698811
490  3.2616226
489.8  3.0457433
489.6  3.3064807
489.4  3.3797059
489.2  3.4258745
489  3.236118
488.8  3.5407108
488.6  3.475092
488.4  3.3373567
488.2  3.3113867
488  3.3247856
487.8  3.4860586
487.6  3.5383837
487.4  3.1790141
487.2  3.1890397
487  3.5935253
486.8  3.5251522
486.6  3.351784
486.4  3.2999747
486.2  3.1953964
486  3.2529774
485.8  3.1518612
485.6  3.166251
485.4  3.1434468
485.2  3.1980562
485  3.1508432
484.8  3.2549025
484.6  3.3099347
484.4  3.2688622
484.2  3.1511529
484  3.3829471
483.8  3.3674487
483.6  3.1177145
483.4  3.3256174
483.2  3.4174998
483  3.3635991
482.8  3.2857931
482.6  3.2424112
482.4  3.2401738
482.2  3.2593058
482  3.3767491
481.8  3.2109367
481.6  3.2542431
481.4  3.2967401
481.2  3.354822
481  3.2732506
480.8  3.0876275
480.6  3.1910186
480.4  3.2306976
480.2  3.4226173
480  3.3866934
479.8  3.2724689
479.6  3.1651046
479.4  3.1205134
479.2  3.2738138
479  3.1755003
478.8  3.2868196
478.6  3.4624097
478.4  3.5709921
478.2  3.4469151
478  3.1865301
477.8  3.1722159
477.6  3.3104217
477.4  3.6243472
477.2  3.5474503
477  3.40562
476.8  3.3901509
476.6  3.5151687
476.4  3.3690101
476.2  3.2921427
476  3.2682654
475.8  3.3011511
475.6  3.3705969
475.4  3.3437294
475.2  3.2611983
475  3.4384543
474.8  3.5133172
474.6  3.2624641
474.4  3.3403572
474.2  3.4096861
474  3.1952881
473.8  3.257539
473.6  3.4312474
473.4  3.4143278
473.2  3.2630586
473  3.3193123
472.8  3.4693386
472.6  3.4639472
472.4  3.383523
472.2  3.2364327
472  3.3460133
471.8  3.3817519
471.6  3.2180155
471.4  3.2216113
471.2  3.2290241
471  3.2824607
470.8  3.3942113
470.6  3.5760834
470.4  3.4877345
470.2  3.2603379
470  3.4264653
469.8  3.4615954
469.6  3.3483065
469.4  3.2732719
469.2  3.3678939
469  3.6068076
468.8  3.5034854
468.6  3.4111593
468.4  3.4925539
468.2  3.227194
468  3.2170842
467.8  3.1227324
467.6  3.3009072
467.4  3.4301962
467.2  3.5337841
467  3.3092283
466.8  3.4014843
466.6  3.3366098
466.4  3.2348285
466.2  3.4147676
466  3.634743
465.8  3.6254086
465.6  3.4065888
465.4  3.5710773
465.2  3.6341572
465  3.6249984
464.8  3.4113664
464.6  3.6082397
464.4  3.2282767
464.2  3.3887469
464  3.3067361
463.8  3.2905963
463.6  3.3747924
463.4  3.3208537
463.2  3.4586763
463  3.5923265
462.8  3.5630578
462.6  3.5514972
462.4  3.3188845
462.2  3.2867527
462  3.5214424
461.8  3.4516739
461.6  3.2415136
461.4  3.6454684
461.2  3.809508
461  3.4167993
460.8  3.4958777
460.6  3.3376649
460.4  3.389512
460.2  3.5303183
460  3.4010376
459.8  3.2405744
459.6  3.3855815
459.4  3.3786628
459.2  3.520098
459  3.6672815
458.8  3.5658378
458.6  3.5000916
458.4  3.567733
458.2  3.5508398
458  3.255653
457.8  3.4383241
457.6  3.3463623
457.4  3.5281526
457.2  3.499276
457  3.6148019
456.8  3.6299461
456.6  4.0467221
456.4  3.8185598
456.2  3.4765325
456  3.5738992
455.8  3.125165
455.6  3.4172062
455.4  3.398291
455.2  3.5067804
455  3.475943
454.8  3.467712
454.6  3.3701241
454.4  3.4897773
454.2  3.1990627
454  3.4207392
453.8  3.3826562
453.6  3.4406395
453.4  3.4104675
453.2  3.4554055
453  3.5166632
452.8  3.4455181
452.6  3.5156117
452.4  3.5050234
452.2  3.7524711
452  3.5386068
451.8  3.5732389
451.6  3.4303699
451.4  3.6369563
451.2  3.3461936
451  3.414995
450.8  3.6369475
450.6  3.7119192
450.4  3.7128701
450.2  3.7839148
450  3.7343937
449.8  3.8517789
449.6  4.0876619
449.4  3.5994149
449.2  3.6155095
449  3.6463795
448.8  3.5961913
448.6  3.5037758
448.4  3.499213
448.2  3.6464966
448  3.5104949
447.8  3.4402632
447.6  3.4641958
447.4  3.3642582
447.2  3.5510209
447  3.7281548
446.8  3.4746457
446.6  3.4517413
446.4  3.3647449
446.2  3.4233589
446  3.4459385
445.8  3.668496
445.6  3.4314331
445.4  3.4931903
445.2  3.4232489
445  3.617989
444.8  3.596728
444.6  3.4903085
444.4  3.3379901
444.2  3.4971736
444  3.3249216
443.8  3.4225283
443.6  3.566925
443.4  3.6386323
443.2  3.693013
443  3.693728
442.8  3.5459371
442.6  3.6862853
442.4  3.7677383
442.2  3.5747794
442  3.4270769
441.8  3.6123538
441.6  3.9621074
441.4  3.8458107
441.2  3.6942945
441  3.6122232
440.8  3.6154262
440.6  3.5434022
440.4  3.4704224
440.2  3.7114823
440  3.8536046
439.8  3.7287108
439.6  3.5214501
439.4  3.7620546
439.2  3.6868494
439  3.4956454
438.8  3.5982371
438.6  3.6411034
438.4  3.8450757
438.2  3.6263823
438  3.6164353
437.8  3.5204241
437.6  3.5964935
437.4  3.6711978
437.2  3.5577959
437  3.5080395
436.8  3.5664459
436.6  3.5387597
436.4  3.6430053
436.2  3.7812686
436  3.6112477
435.8  3.6405118
435.6  3.7143264
435.4  3.7006005
435.2  3.5976948
435  3.766168
434.8  3.7492179
434.6  3.8617639
434.4  3.7267455
434.2  3.4060373
434  3.4791726
433.8  3.5932831
433.6  3.5616448
433.4  3.6935
433.2  3.5637355
433  3.6675087
432.8  3.6818269
432.6  3.6426694
432.4  3.3127559
432.2  3.2601096
432  3.5015968
431.8  3.5326562
431.6  3.8830593
431.4  3.7998467
431.2  3.6563882
431  3.5060015
430.8  3.525995
430.6  3.6693154
430.4  3.6708879
430.2  3.7707545
430  3.8317831
429.8  3.7352814
429.6  3.7192753
429.4  3.7589415
429.2  3.6313735
429  3.8700633
428.8  3.8107478
428.6  3.667676
428.4  4.059023
428.2  3.8064534
428  3.7771482
427.8  3.7371518
427.6  3.7574401
427.4  3.8977696
427.2  3.9921968
427  3.9664965
426.8  3.7251381
426.6  3.6038421
426.4  3.6057292
426.2  3.6249908
426  3.5420576
425.8  3.6539621
425.6  3.5700741
425.4  3.6573144
425.2  3.766852
425  3.9655272
424.8  3.6792943
424.6  3.7514434
424.4  4.0040061
424.2  3.8597291
424  3.8153205
423.8  3.6525219
423.6  3.8357433
423.4  3.6956913
423.2  3.6413461
423  3.6980322
422.8  3.862768
422.6  3.6143654
422.4  3.5370637
422.2  3.6811756
422  3.8243361
421.8  4.0250841
421.6  3.7972796
421.4  3.8891593
421.2  3.8133332
421  3.9446444
420.8  3.7338803
420.6  3.7943563
420.4  3.8577221
420.2  3.8151741
420  3.7539667
419.8  3.8524735
419.6  3.804903
419.4  3.9558172
419.2  3.6986157
419  3.7431528
418.8  3.9616371
418.6  3.8031215
418.4  3.7387069
418.2  3.8521935
418  3.8900323
417.8  3.6922686
417.6  3.6565224
417.4  3.626132
417.2  3.7991164
417  3.5807151
416.8  3.727902
416.6  4.0602447
416.4  3.8183128
416.2  3.7469984
416  3.9812871
415.8  3.8267087
415.6  3.76445
415.4  4.0032132
415.2  3.7459155
415  3.6329923
414.8  3.81945
414.6  3.6592348
414.4  3.7261651
414.2  3.6416386
414  3.9655969
413.8  3.8072769
413.6  4.0257887
413.4  4.0443205
413.2  3.8712357
413  4.2171299
412.8  3.9092144
412.6  3.8998325
412.4  3.917991
412.2  3.8180702
412  3.9491307
411.8  4.0229265
411.6  3.8099525
411.4  3.8816549
411.2  3.8403387
411  3.8820822
410.8  3.7135352
410.6  3.7137839
410.4  3.9971401
410.2  3.8166643
410  4.052434
409.8  3.8352229
409.6  3.9251419
409.4  3.9126819
409.2  3.9350651
409  3.8336153
408.8  3.7635151
408.6  3.5946712
408.4  3.801616
408.2  3.8684852
408  3.9267636
407.8  3.6289735
407.6  3.7926029
407.4  3.9638397
407.2  4.0123042
407  3.8171756
406.8  4.1746469
406.6  4.0807055
406.4  3.7687145
406.2  3.8593426
406  3.9978882
405.8  4.1891719
405.6  3.9282396
405.4  4.062883
405.2  3.8474992
405  3.8936998
404.8  4.0164727
404.6  4.1416708
404.4  4.2192607
404.2  3.8142162
404  3.9021843
403.8  3.8779132
403.6  4.153537
403.4  4.1846966
403.2  4.1045423
403  3.782633
402.8  4.0445932
402.6  4.3288617
402.4  3.9483278
402.2  3.7241923
402  4.0679006
401.8  3.9784196
401.6  4.2031178
401.4  4.2050385
401.2  4.2436289
401  4.5024898
400.8  4.7333178
400.6  4.7799642
400.4  4.8960616
400.2  4.7717875
400  4.6664345
399.8  4.3565324
399.6  4.4207594
399.4  4.365966
399.2  4.3532678
399  4.3889582
398.8  4.0819421
398.6  3.7112075
398.4  3.7784877
398.2  3.6994536
398  3.7999073
397.8  3.7096352
397.6  3.8887121
397.4  3.8428918
397.2  3.8683903
397  3.9141492
396.8  3.817611
396.6  3.7634227
396.4  3.6840135
396.2  3.8540724
396  3.971052
395.8  4.0278922
395.6  4.1557378
395.4  3.8207682
395.2  3.7027663
395  3.9229012
394.8  3.8050091
394.6  4.244475
394.4  4.0274155
394.2  3.9472375
394  3.8877272
393.8  4.0791095
393.6  3.8159229
393.4  3.7272912
393.2  3.7150876
393  3.5686429
392.8  3.6643095
392.6  3.8063882
392.4  3.8783579
392.2  3.6106672
392  3.6058531
391.8  3.6193521
391.6  3.6057488
391.4  3.8629838
391.2  3.6799105
391  3.7624204
390.8  3.7939634
390.6  3.6524179
390.4  3.7065818
390.2  3.7457594
390  3.7712248
389.8  3.5148978
389.6  3.6569461
389.4  3.7162239
389.2  3.9564609
389  3.8053986
388.8  3.9959828
388.6  3.8533678
388.4  3.7256522
388.2  3.8148694
388  3.6646218
387.8  3.6434766
387.6  3.8036955
387.4  3.9805077
387.2  3.9731622
387  3.9197791
386.8  3.7470607
386.6  3.8205544
386.4  4.2021484
386.2  4.0764429
386  3.7104258
385.8  3.6860264
385.6  3.5296098
385.4  3.7223219
385.2  3.6586298
385  3.7581611
384.8  3.7120898
384.6  3.7271706
384.4  3.5357345
384.2  3.7969128
384  3.6298878
383.8  3.6205623
383.6  3.5941818
383.4  4.0001523
383.2  3.6594698
383  3.906824
382.8  3.8409481
382.6  3.7123536
382.4  3.6335614
382.2  3.8622709
382  3.9260947
381.8  3.6877681
381.6  3.8128285
381.4  3.7213495
381.2  3.692721
381  4.0072075
380.8  4.0215944
380.6  3.9312009
380.4  3.8815612
380.2  3.7035635
380  3.7794138
379.8  3.7127374
379.6  3.7955624
379.4  3.6592895
379.2  3.6045825
379  3.6024685
378.8  3.6323959
378.6  3.6731409
378.4  3.9167929
378.2  3.7215241
378  3.5657876
377.8  3.858204
377.6  3.7975101
377.4  3.8931139
377.2  3.7730973
377  3.6158086
376.8  3.5423809
376.6  3.7095843
376.4  3.9567663
376.2  3.8369477
376  3.7965272
375.8  3.7236164
375.6  3.7874111
375.4  3.6543425
375.2  3.777155
375  3.6325849
374.8  3.8934293
374.6  3.9982207
374.4  3.8595638
374.2  3.807501
374  4.0408611
373.8  3.9690625
373.6  3.7234977
373.4  3.6532032
373.2  3.6482044
373  4.0430341
372.8  3.8514891
372.6  3.7886596
372.4  3.9440217
372.2  3.8497562
372  3.8450939
371.8  3.9374573
371.6  4.0121034
371.4  3.7601881
371.2  3.7182918
371  3.836327
370.8  3.6289449
370.6  3.7394203
370.4  4.0616384
370.2  3.6721349
370  3.8639515
369.8  4.069719
369.6  3.766926
369.4  3.6815392
369.2  3.6265459
369  3.5524098
368.8  3.7223104
368.6  3.7466924
368.4  4.0005932
368.2  4.1108045
368  3.9216928
367.8  3.6752747
367.6  3.8545193
367.4  3.7668413
367.2  3.9752952
367  3.9249152
366.8  3.9386779
366.6  3.7825066
366.4  3.8095296
366.2  4.0202974
366  3.8772151
365.8  3.9517158
365.6  3.90704
365.4  3.7258557
365.2  3.8991555
365  3.8921901
364.8  3.9875666
364.6  3.9086292
364.4  3.9243343
364.2  3.7536
364  3.8765908
363.8  3.6694462
363.6  3.986738
363.4  3.9784323
363.2  4.0247821
363  3.9682798
362.8  4.0531547
362.6  4.034844
362.4  3.9995193
362.2  4.1762185
362  4.2526356
361.8  4.2674289
361.6  4.0608853
361.4  3.9130143
361.2  3.9555707
361  3.8674213
360.8  3.6539943
360.6  3.8577037
360.4  3.9573198
360.2  3.863644
360  3.8807068
359.8  3.8877983
359.6  4.1239708
359.4  3.6186237
359.2  3.8204641
359  4.0348965
358.8  4.1456531
358.6  4.1116881
358.4  3.9845086
358.2  3.7426935
358  3.8940643
357.8  3.9529678
357.6  3.977933
357.4  3.9499021
357.2  3.9957229
357  3.927246
356.8  4.0083284
356.6  4.2187096
356.4  4.0990469
356.2  4.1759233
356  4.0542561
355.8  4.0763004
355.6  3.8758289
355.4  4.0829746
355.2  4.09103
355  4.02636
354.8  3.8576127
354.6  3.8532303
354.4  3.9998241
354.2  4.1397842
354  3.9338209
353.8  4.1561639
353.6  3.8069758
353.4  3.7937246
353.2  3.9979009
353  4.0479217
352.8  4.2269764
352.6  3.9865289
352.4  3.9320688
352.2  3.881715
352  4.0982005
351.8  3.9863897
351.6  3.9957759
351.4  4.069301
351.2  3.8668868
351  3.9712245
350.8  4.1080247
350.6  4.2001154
350.4  3.9451652
350.2  3.8294797
350  3.8313092
349.8  3.8367619
349.6  4.0572028
349.4  4.0562224
349.2  3.9074406
349  3.9642898
348.8  4.1133278
348.6  3.7683444
348.4  3.7561491
348.2  3.8328802
348  4.0513291
347.8  4.1386294
347.6  4.1388275
347.4  3.9228913
347.2  3.8912501
347  3.8451106
346.8  3.8321856
346.6  3.9314389
346.4  4.0932033
346.2  4.1975344
346  4.0812064
345.8  4.2351997
345.6  4.0038771
345.4  3.9465394
345.2  4.2323676
345  4.2080118
344.8  3.9015764
344.6  4.1435637
344.4  3.9153062
344.2  4.0524327
344  4.1728084
343.8  4.2825703
343.6  4.0495401
343.4  4.2395233
343.2  4.1376995
343  3.9840917
342.8  4.1268286
342.6  4.0282546
342.4  3.9987866
342.2  4.0491582
342  4.0385179
341.8  4.1831663
341.6  4.2206374
341.4  3.9405235
341.2  3.7453319
341  3.9381812
340.8  4.2562501
340.6  4.1860504
340.4  4.1650687
340.2  4.1693122
340  4.2777217
339.8  4.0318902
339.6  4.1289102
339.4  4.2155323
339.2  4.0100739
339  4.1164745
338.8  3.9905414
338.6  3.9871216
338.4  4.2484962
338.2  3.9213488
338  4.1554501
337.8  4.1543632
337.6  4.3000375
337.4  4.089514
337.2  4.0599101
337  4.0029644
336.8  4.2963675
336.6  4.1376419
336.4  3.9715571
336.2  4.0251471
336  4.4030357
335.8  4.2090875
335.6  4.0238566
335.4  3.9529282
335.2  4.172298
335  4.2745873
334.8  4.1603064
334.6  4.3649585
334.4  4.2393
334.2  4.2811202
334  4.2520877
333.8  4.4928656
333.6  4.143157
333.4  4.2730095
333.2  4.4804785
333  4.2743119
332.8  4.5114341
332.6  4.0362738
332.4  4.1838645
332.2  4.0107438
332  4.2985191
331.8  4.2241768
331.6  4.5326208
331.4  4.2994078
331.2  4.2418291
331  4.4288078
330.8  4.7877579
330.6  4.3326461
330.4  4.1583624
330.2  4.2364178
330  4.2076167
329.8  4.0938009
329.6  4.1752872
329.4  4.5412577
329.2  4.4956835
329  4.3416068
328.8  4.4804896
328.6  4.2551585
328.4  4.2372466
328.2  4.1078022
328  4.329891
327.8  4.2921498
327.6  4.4030699
327.4  4.3418185
327.2  4.349547
327  4.165528
326.8  4.4019663
326.6  4.2817938
326.4  4.1778177
326.2  4.1817538
326  4.5172427
325.8  4.3561057
325.6  4.2917374
325.4  4.5105235
325.2  4.1479179
325  4.2496487
324.8  4.7273485
324.6  4.7013959
324.4  4.3908538
324.2  4.4026513
324  4.2764145
323.8  4.2773802
323.6  4.2868986
323.4  4.7781458
323.2  4.4002341
323  4.3860743
322.8  4.3745435
322.6  4.4944419
322.4  4.5824734
322.2  4.3989819
322  4.2293809
321.8  4.2592729
321.6  4.3135773
321.4  4.1158282
321.2  4.1260552
321  4.4538535
320.8  4.3614794
320.6  4.0896488
320.4  4.287626
320.2  4.2209453
320  4.2585487
319.8  4.2829354
319.6  4.6427915
319.4  4.5741742
319.2  4.575854
319  4.5031104
318.8  4.6065086
318.6  4.8062917
318.4  4.2992764
318.2  4.5683974
318  4.6404876
317.8  4.2646925
317.6  4.3037417
317.4  4.3908641
317.2  4.5802523
317  4.4444291
316.8  4.4901711
316.6  4.4303441
316.4  4.3114733
316.2  4.2858286
316  4.3329011
315.8  4.2853878
315.6  4.5077724
315.4  4.5305341
315.2  4.165506
315  4.1914536
314.8  4.4340965
314.6  4.3156607
314.4  4.4005996
314.2  4.564807
314  4.5467022
313.8  4.4294123
313.6  4.3841215
313.4  4.406067
313.2  4.4345743
313  4.3436441
312.8  4.4460402
312.6  4.5511464
312.4  4.6220434
312.2  4.5372671
312  4.4360556
311.8  4.5223707
311.6  4.4972018
311.4  4.2334101
311.2  4.2952838
311  4.4457709
310.8  4.5589566
310.6  4.5545804
310.4  4.5616498
310.2  4.6471239
310  4.5832482
309.8  4.6370041
309.6  4.5819177
309.4  4.6343151
309.2  4.6125015
309  4.5555497
308.8  4.6790882
308.6  4.3922792
308.4  4.3370029
308.2  4.3839626
308  4.2987371
307.8  4.2761862
307.6  4.61849
307.4  4.2629612
307.2  4.5435581
307  4.6300085
306.8  4.5334837
306.6  4.5838101
306.4  4.450836
306.2  4.3794777
306  4.1327151
305.8  4.4927603
305.6  4.6423268
305.4  4.5634154
305.2  4.520496
305  4.4504114
304.8  4.4386876
304.6  4.7236289
304.4  4.4009291
304.2  4.7363841
304  4.4937343
303.8  4.5288385
303.6  4.5242401
303.4  4.6098004
303.2  4.7356769
303  4.5415325
302.8  4.4626106
302.6  4.4869914
302.4  4.4352696
302.2  4.630631
302  4.6508641
301.8  4.6162584
301.6  4.6185136
301.4  4.4073575
301.2  4.7694185
301  4.607565
300.8  4.5080543
300.6  4.5724632
300.4  4.7441723
300.2  4.7137963
300  4.6572668
299.8  4.7447632
299.6  4.4911429
299.4  4.3715314
299.2  4.5314274
299  4.3927602
298.8  4.3665336
298.6  4.6475938
298.4  4.555736
298.2  4.7842854
298  4.7831198
297.8  4.9548547
297.6  4.6606368
297.4  4.5919703
297.2  4.343338
297  4.3781076
296.8  4.7123428
296.6  4.7100527
296.4  4.3585709
296.2  4.2958208
296  4.268743
295.8  4.4289651
295.6  4.3536464
295.4  4.695636
295.2  4.7340427
295  4.5973919
294.8  4.5956992
294.6  4.8110253
294.4  4.9854638
294.2  4.8589607
294  4.9450895
293.8  4.7003756
293.6  4.6915329
293.4  4.3178144
293.2  4.6320858
293  4.5061491
292.8  4.3054147
292.6  4.5855348
292.4  4.7341608
292.2  5.1046418
292  4.829955
291.8  4.8471703
291.6  4.6788164
291.4  4.6060065
291.2  4.4514548
291  4.5895776
290.8  4.7321008
290.6  4.4882915
290.4  4.7538699
290.2  4.8896129
290  5.1873503
289.8  5.079509
289.6  4.8753225
289.4  5.1159402
289.2  5.0557553
289  4.9671087
288.8  5.4152566
288.6  5.1133384
288.4  4.9660738
288.2  5.1738698
288  5.3253894
287.8  5.61247
287.6  5.7283689
287.4  5.9955933
287.2  6.2103502
287  6.260915
286.8  6.4418358
286.6  6.5885714
286.4  7.2008194
286.2  7.6185238
286  7.9528822
285.8  8.87203
285.6  9.7122208
285.4  10.1961
285.2  10.217462
285  10.01801
284.8  8.8660175
284.6  7.6376661
284.4  6.7685267
284.2  5.6090931
284  5.0479226
283.8  4.9861675
283.6  4.7541313
283.4  4.6453746
283.2  4.6014923
283  4.450844
282.8  4.6469315
282.6  4.7799709
282.4  4.3835291
282.2  4.6274057
282  4.8279759
281.8  4.4219813
281.6  4.4446767
281.4  4.6128275
281.2  4.350947
281  4.5076937
280.8  4.6284053
280.6  4.5296336
280.4  4.3870418
280.2  4.3319262
280  4.5022666
279.8  4.6399283
279.6  4.7516132
279.4  4.3803597
279.2  4.5076318
279  4.3999592
278.8  4.2343084
278.6  4.5222139
278.4  4.8239057
278.2  4.4995009
278  4.670696
277.8  4.5808249
277.6  4.247158
277.4  4.3003483
277.2  4.4442054
277  4.6390335
276.8  4.7729821
276.6  4.5677622
276.4  4.8725135
276.2  4.7013031
276  4.5863532
275.8  4.3724167
275.6  4.6225482
275.4  4.7038936
275.2  4.8451868
275  4.7207028
274.8  4.5639433
274.6  4.5674381
274.4  4.5185393
274.2  4.3539792
274  4.3781455
273.8  4.6902521
273.6  4.6611577
273.4  4.5230038
273.2  4.5269871
273  4.495652
272.8  4.6943679
272.6  4.5890454
272.4  4.5497109
272.2  4.6310848
272  4.3636936
271.8  4.9063917
271.6  4.9291629
271.4  4.9248838
271.2  4.7008057
271  4.795999
270.8  4.7582347
270.6  5.0719093
270.4  5.0147632
270.2  4.978683
270  5.1086684
269.8  5.1055291
269.6  4.9528074
269.4  4.9031674
269.2  5.0242643
269  5.0102853
268.8  4.7042288
268.6  4.6664142
268.4  4.6170879
268.2  4.8859007
268  4.5424676
267.8  4.9539096
267.6  4.6565717
267.4  4.6094249
267.2  4.5639676
267  4.6717296
266.8  4.6724973
266.6  4.5123669
266.4  4.4499017
266.2  4.5239433
266  4.6402311
265.8  4.4889816
265.6  4.7555405
265.4  4.6968131
265.2  4.3488694
265  4.5189484
264.8  4.6940507
264.6  4.6372581
264.4  4.4537452
264.2  4.3681602
264  4.3599001
263.8  4.6057865
263.6  4.6586601
263.4  4.5527963
263.2  4.77573
263  4.7697147
262.8  4.4947837
262.6  4.5074022
262.4  4.5374167
262.2  4.4750446
262  4.5495338
261.8  4.443363
261.6  4.6985149
261.4  4.7792284
261.2  4.8226417
261  4.6497797
260.8  4.6228357
260.6  4.7510212
260.4  4.6280134
260.2  4.5863322
260  4.6165928
259.8  4.6227392
259.6  4.3861807
259.4  4.5846616
259.2  4.7123643
259  4.5152861
258.8  4.7470564
258.6  4.7558625
258.4  4.7862327
258.2  4.6864226
258  4.4832448
257.8  4.4477646
257.6  4.4462729
257.4  4.3951193
257.2  4.4768741
257  4.3626709
256.8  4.7912739
256.6  4.9138057
256.4  4.8958613
256.2  4.7360279
256  4.4650563
255.8  4.6767601
255.6  4.8915388
255.4  5.1568148
255.2  4.8401494
255  4.5084594
254.8  4.7611275
254.6  4.7448305
254.4  4.7234316
254.2  4.8244565
254  4.9161521
253.8  4.6512132
253.6  4.3710487
253.4  4.7127812
253.2  4.8576824
253  4.7947059
252.8  5.0010114
252.6  4.7880945
252.4  4.6005439
252.2  4.5920679
252  4.7493729
251.8  4.5584602
251.6  4.834034
251.4  4.9014742
251.2  4.998121
251  4.9579058
250.8  4.9155878
250.6  4.8124435
250.4  4.7688265
250.2  4.8735736
250  4.7017975
249.8  4.5087288
249.6  4.9710862
249.4  5.0670957
249.2  4.8325196
249  4.5954399
248.8  4.6606307
248.6  4.8439785
248.4  4.7666712
248.2  4.8417866
248  4.9472523
247.8  4.8398687
247.6  4.7103781
247.4  4.9779277
247.2  5.047145
247  4.9760231
246.8  4.7440788
246.6  4.7764004
246.4  4.5283264
246.2  4.8325014
246  5.0512097
245.8  4.8935764
245.6  5.110536
245.4  5.0369022
245.2  5.0361688
245  5.2039698
244.8  4.8318282
244.6  4.8291977
244.4  4.6880931
244.2  4.9428177
244  4.7464593
243.8  4.9405573
243.6  4.7654531
243.4  4.6661727
243.2  5.0011956
243  4.865817
242.8  4.8850714
242.6  4.7758647
242.4  4.7680851
242.2  5.0313583
242  5.2639348
241.8  4.948894
241.6  4.6813583
241.4  4.6820511
241.2  4.6020953
241  4.5930231
240.8  4.5435934
240.6  4.5668204
240.4  4.8364292
240.2  4.9224095
240  4.6261348
239.8  4.8592165
239.6  4.7318036
239.4  5.0233319
239.2  5.0147984
239  5.0255243
238.8  4.6971083
238.6  4.9288783
238.4  5.0511173
238.2  5.1783599
238  5.167356
237.8  4.9668469
237.6  4.8836831
237.4  4.8891955
237.2  5.0825002
237  4.8463817
236.8  4.7503967
236.6  4.832465
236.4  4.75693
236.2  4.9233528
236  4.949869
235.8  4.8957225
235.6  5.0866122
235.4  4.9034704
235.2  4.635079
235  4.7370061
234.8  4.7502435
234.6  4.736893
234.4  5.0966491
234.2  5.0036987
234  4.9038239
233.8  5.0738301
233.6  4.9860282
233.4  5.0550591
233.2  5.2091132
233  5.0789057
232.8  5.2675556
232.6  5.1947785
232.4  5.4688148
232.2  6.2319805
232  5.3440018
231.8  5.3562444
231.6  5.3637519
231.4  5.1166048
231.2  5.3226128
231  5.2112682
230.8  4.8787059
230.6  4.9800977
230.4  5.2235577
230.2  5.3270481
230  5.166753
229.8  5.1804864
229.6  5.2928214
229.4  5.7872751
229.2  5.40417
229  5.7453145
228.8  5.484931
228.6  5.4058999
228.4  5.4180259
228.2  5.1807206
228  5.2695275
227.8  5.2664245
227.6  5.2448288
227.4  5.0383351
227.2  5.1883659
227  5.1793073
226.8  4.983075
226.6  5.1837287
226.4  4.9628009
226.2  4.9476447
226  5.1219983
225.8  5.0690516
225.6  5.0120576
225.4  4.8842127
225.2  5.0468136
225  5.2117872
224.8  5.0461894
224.6  4.984126
224.4  5.1619654
224.2  4.7626785
224  4.8549944
223.8  4.8068541
223.6  5.0200955
223.4  4.9880444
223.2  4.7264392
223  4.9682722
222.8  4.6407225
222.6  4.7144796
222.4  5.1246573
222.2  5.1909432
222  4.6602428
221.8  4.6863095
221.6  4.7166029
221.4  4.9494823
221.2  4.6615934
221  4.8222475
220.8  5.0031734
220.6  5.0263712
220.4  4.6636655
220.2  5.0558312
220  5.0654887
219.8  4.7057271
219.6  5.1385184
219.4  5.0557249
219.2  5.0157882
219  4.9034101
218.8  4.8736346
218.6  5.1056082
218.4  5.0298356
218.2  5.0505853
218  5.157194
217.8  5.3928138
217.6  5.1049401
217.4  5.0553138
217.2  4.8475529
217  4.8216505
216.8  5.1138382
216.6  5.0575918
216.4  5.1052799
216.2  5.1167563
216  5.2350768
215.8  5.1182828
215.6  5.325438
215.4  5.3077747
215.2  5.2644474
215  5.1314451
214.8  5.0110075
214.6  4.9589725
214.4  4.993471
214.2  5.15578
214  5.1202264
213.8  5.1359229
213.6  5.0395064
213.4  5.1569331
213.2  5.2270437
213  5.1120998
212.8  5.2435687
212.6  5.2625827
212.4  5.3562405
212.2  5.32429
212  5.2138188
211.8  5.3580875
211.6  5.0277952
211.4  5.0195165
211.2  5.2556301
211  5.2495712
210.8  5.0445691
210.6  5.437291
210.4  5.5784945
210.2  5.2261521
210  5.2949556
209.8  5.077352
209.6  5.1259278
209.4  5.2903796
209.2  5.18659
209  5.4181131
208.8  5.3917589
208.6  5.5331928
208.4  5.2919305
208.2  5.2813698
208  5.2909192
207.8  5.1879024
207.6  5.3894361
207.4  4.9818186
207.2  5.0524079
207  5.1326759
206.8  5.0446301
206.6  5.1472134
206.4  5.0653855
206.2  4.9868038
206  5.5131773
205.8  5.2965415
205.6  5.3320478
205.4  5.1547699
205.2  4.8540495
205  5.1118766
204.8  5.1237857
204.6  5.2518416
204.4  5.1284041
204.2  5.411731
204  5.3313842
203.8  5.0890373
203.6  5.2893658
203.4  5.2211676
203.2  5.3722808
203  5.2881078
202.8  5.3647961
202.6  5.5181734
202.4  5.933733
202.2  5.3594853
202  5.2599654
201.8  5.1397846
201.6  5.4721839
201.4  5.7540781
201.2  5.5661396
201  5.7939573
200.8  5.8604443
200.6  5.8427173
200.4  5.8153666
200.2  6.3540609
200  6.0583834
199.8  5.6397633
199.6  5.9619969
199.4  5.7645035
199.2  6.3566692
199  6.8757542
198.8  7.0546799
198.6  6.5269981
198.4  6.5735069
198.2  6.1762713
198  5.4537239
197.8  5.3613159
197.6  5.1129869
197.4  5.1774262
197.2  5.4159818
197  5.4019285
196.8  5.2961742
196.6  5.3350363
196.4  5.1008301
196.2  5.2827937
196  5.5884976
195.8  5.6105652
195.6  5.5747317
195.4  5.4567649
195.2  5.3875352
195  5.5753135
194.8  5.4242882
194.6  5.6355369
194.4  5.4776712
194.2  5.3787434
194  5.464821
193.8  5.3430617
193.6  5.2643901
193.4  5.5490823
193.2  5.6102824
193  5.3983223
192.8  5.5057919
192.6  5.4555743
192.4  5.4721298
192.2  5.358703
192  5.6138977
191.8  5.1161466
191.6  5.1924793
191.4  5.1952589
191.2  5.4694318
191  5.4228511
190.8  5.2812255
190.6  5.4376577
190.4  5.451768
190.2  5.3360124
190  5.5205146
189.8  5.5691566
189.6  5.5695229
189.4  5.5634773
189.2  5.6280125
189  5.5705248
188.8  5.5927361
188.6  5.6202158
188.4  5.502142
188.2  5.2439224
188  5.5846801
187.8  5.8164514
187.6  5.5606485
187.4  5.533406
187.2  5.5316086
187  5.4142019
186.8  5.4720718
186.6  5.4828851
186.4  5.6496459
186.2  5.3842776
186  5.5247114
185.8  5.3493558
185.6  5.5877814
185.4  5.3673794
185.2  5.6138325
185  5.6770861
184.8  5.7470746
184.6  5.4657287
184.4  5.6062801
184.2  5.8038781
184  5.5907334
183.8  5.3732765
183.6  5.3926426
183.4  5.5247568
183.2  5.6433559
183  5.5110307
182.8  5.5514971
182.6  5.7490553
182.4  5.6486345
182.2  5.79111
182  5.5003382
181.8  5.6718668
181.6  5.4014664
181.4  5.3353006
181.2  5.8687836
181  5.7981031
180.8  5.5029126
180.6  5.7268274
180.4  5.9426075
180.2  5.6212668
180  5.5037683
179.8  5.6171638
179.6  5.5806261
179.4  5.5838713
179.2  5.5187659
179  5.6741932
178.8  5.7854248
178.6  5.2848756
178.4  5.3513416
178.2  5.6649266
178  5.8323903
177.8  5.5320538
177.6  5.5452577
177.4  5.5783453
177.2  5.8726566
177  5.6608064
176.8  5.573969
176.6  5.9180293
176.4  6.0565689
176.2  5.7469556
176  6.1877122
175.8  5.6469575
175.6  5.7573939
175.4  5.7650015
175.2  5.7325988
175  5.8879329
174.8  5.8518661
174.6  6.027526
174.4  5.6632833
174.2  5.8012108
174  5.86405
173.8  5.8586214
173.6  5.5515222
173.4  5.7216222
173.2  5.8193797
173  6.0070799
172.8  5.9995098
172.6  5.7305039
172.4  5.7430889
172.2  5.9913847
172  6.0333667
171.8  5.7489577
171.6  5.9377861
171.4  5.7738311
171.2  5.7171288
171  5.8258876
170.8  5.8826571
170.6  5.6862992
170.4  5.7728915
170.2  6.2776469
170  6.2793422
169.8  5.9237697
169.6  5.8861987
169.4  5.8152685
169.2  6.212552
169  5.9229702
168.8  6.1288862
168.6  6.2274928
168.4  6.010753
168.2  6.3059716
168  6.0348911
167.8  6.2216022
167.6  6.0871832
167.4  6.2239952
167.2  6.1670931
167  5.9020484
166.8  5.765965
166.6  6.0219199
166.4  5.7700608
166.2  6.1281349
166  6.0990506
165.8  6.0789778
165.6  6.2068838
165.4  5.9705408
165.2  5.8909993
165  6.0909201
164.8  6.0184257
164.6  6.0524986
164.4  6.1389763
164.2  6.2152575
164  6.1231583
163.8  6.145568
163.6  6.0488496
163.4  6.0859804
163.2  6.2328317
163  6.1278713
162.8  6.0702454
162.6  6.3928479
162.4  6.0073421
162.2  6.1537633
162  6.179301
161.8  6.2229405
161.6  6.2242572
161.4  6.1767018
161.2  5.868244
161  5.8937804
160.8  6.1083362
160.6  6.2261872
160.4  6.0543838
160.2  6.2849462
160  6.3180828
159.8  6.3481447
159.6  6.159913
159.4  6.2854789
159.2  6.5129507
159  6.2527538
158.8  5.9998653
158.6  6.1823669
158.4  6.4061163
158.2  6.3387829
158  6.2124137
157.8  6.1960541
157.6  6.4983862
157.4  6.5641905
157.2  6.2435767
157  6.2412717
156.8  6.2440638
156.6  6.2231032
156.4  5.9889374
156.2  6.547478
156  6.4576321
155.8  6.3586878
155.6  6.3435602
155.4  6.6153256
155.2  6.656979
155  6.458867
154.8  6.4571665
154.6  6.4531859
154.4  6.5073225
154.2  6.6934032
154  6.7296299
153.8  6.5967369
153.6  6.4702129
153.4  6.302947
153.2  6.2358453
153  6.180837
152.8  6.5621451
152.6  6.7368443
152.4  6.5637151
152.2  6.5085718
152  6.7818331
151.8  6.7612626
151.6  6.3298465
151.4  6.3254832
151.2  6.582235
151  6.6914258
150.8  6.7757652
150.6  6.5870226
150.4  6.7139862
150.2  6.7715746
150  6.8364795
149.8  6.7523304
149.6  6.4274174
149.4  6.5513623
149.2  6.710406
149  6.6072167
148.8  6.5217708
148.6  6.481165
148.4  6.6686112
148.2  6.7969133
148  6.8571714
147.8  6.9064329
147.6  6.6105604
147.4  6.7893001
147.2  7.1335793
147  6.9173071
146.8  6.6849336
146.6  7.1352778
146.4  7.12232
146.2  7.2118847
146  6.6156783
145.8  6.8108691
145.6  6.9835202
145.4  7.1030532
145.2  6.9372007
145  6.6139436
144.8  6.7974128
144.6  7.0426765
144.4  7.1197053
144.2  7.3890853
144  7.3095125
143.8  7.1372978
143.6  7.0882127
143.4  6.9600279
143.2  7.2442006
143  7.435583
142.8  6.9875851
142.6  7.0560302
142.4  6.7948779
142.2  6.7999551
142  7.2178127
141.8  6.9760108
141.6  7.2673679
141.4  6.9468069
141.2  6.9439719
141  7.31236
140.8  7.2387842
140.6  7.1061602
140.4  6.9619012
140.2  6.9248857
140  6.9113816
139.8  7.1267438
139.6  7.0583738
139.4  6.9758619
139.2  6.9316845
139  7.0193786
138.8  7.0240661
138.6  6.8970004
138.4  7.2768535
138.2  6.8565858
138  7.3109575
137.8  6.8446175
137.6  6.8244462
137.4  7.1449235
137.2  7.366425
137  7.1418467
136.8  7.0849336
136.6  7.2308333
136.4  7.3104233
136.2  7.1385981
136  6.8242293
135.8  7.1056619
135.6  6.7999561
135.4  7.459185
135.2  7.0374733
135  6.8608868
134.8  7.2652651
134.6  7.0840246
134.4  7.07607
134.2  6.9993766
134  6.847071
133.8  7.0912815
133.6  7.1573622
133.4  7.1581601
133.2  7.1308804
133  7.3238318
132.8  7.0890776
132.6  6.9750294
132.4  7.1735746
132.2  7.3745621
132  7.2267363
131.8  7.2438981
131.6  7.392102
131.4  7.2293329
131.2  6.9475219
131  7.2286219
130.8  7.5407984
130.6  6.9903903
130.4  7.0344558
130.2  7.2695784
130  7.0699174
129.8  6.901742
129.6  7.1536275
129.4  7.1301218
129.2  7.1357243
129  7.5374376
128.8  7.3168785
128.6  7.1221047
128.4  7.4451581
128.2  7.3423887
128  7.1792798
127.8  7.3487785
127.6  7.8777781
127.4  7.7734977
127.2  7.7113261
127  7.6158523
126.8  7.4687359
126.6  7.6790884
126.4  7.7354699
126.2  8.154839
126  8.4732628
125.8  8.2987032
125.6  8.3970275
125.4  9.0139836
125.2  9.3178189
125  9.8222114
124.8  10.524297
124.6  10.871986
124.4  11.420243
124.2  11.74813
124  13.138835
123.8  14.362885
123.6  15.130686
123.4  16.294917
123.2  16.846701
123  17.351153
122.8  16.943437
122.6  15.691411
122.4  14.661665
122.2  14.149079
122  12.427861
121.8  11.635827
121.6  10.504243
121.4  9.6676806
121.2  9.1789875
121  8.8283828
120.8  8.1144507
120.6  7.8266941
120.4  7.5539242
120.2  7.472427
120  7.0619035
119.8  7.4298596
119.6  7.4245186
119.4  7.0377112
119.2  6.9276754
119  6.7935855
118.8  6.7588564
118.6  6.9081025
118.4  6.6927979
118.2  6.7232781
118  6.5203505
117.8  6.5089643
117.6  6.5805246
117.4  6.3937679
117.2  6.1308023
117  6.2174011
116.8  6.3921306
116.6  6.544331
116.4  6.4679601
116.2  6.223985
116  6.4429868
115.8  6.5428919
115.6  6.1807039
115.4  6.2846703
115.2  6.4753312
115  6.3399858
114.8  6.0986928
114.6  6.1886274
114.4  6.470131
114.2  6.4348797
114  6.9883168
113.8  6.6784297
113.6  6.2263175
113.4  6.1012392
113.2  6.1758319
113  6.3497424
112.8  6.19105
112.6  6.287943
112.4  5.9103228
112.2  6.2472899
112  6.1906441
111.8  5.888103
111.6  6.04604
111.4  6.0742121
111.2  6.3310359
111  6.2702014
110.8  6.419203
110.6  6.6792166
110.4  6.2270825
110.2  6.6093034
110  6.5384474
109.8  6.19305
109.6  6.3983861
109.4  6.1581002
109.2  6.406533
109  6.7046995
108.8  6.6324588
108.6  6.3254703
108.4  6.4546546
108.2  6.5498192
108  6.9259871
107.8  6.786275
107.6  6.9557203
107.4  7.13703
107.2  7.041779
107  6.8519771
106.8  6.8156617
106.6  6.6624367
106.4  6.7584573
106.2  6.822442
106  6.5297896
105.8  6.9215464
105.6  7.36566
105.4  7.2001131
105.2  7.1977088
105  7.0441917
104.8  6.9597568
104.6  7.0275075
104.4  6.9994809
104.2  6.704803
104  7.0453102
103.8  6.8587916
103.6  7.2014117
103.4  7.2530926
103.2  7.0062415
103  7.3899362
102.8  7.5672282
102.6  7.4079249
102.4  7.3495792
102.2  7.1751386
102  7.1030576
101.8  7.4452106
101.6  6.8850042
101.4  7.1987416
101.2  7.1871308
101  7.2722755
100.8  7.2575554
100.6  7.2066608
100.4  7.5399343
100.2  7.5591841
100  7.2867196
99.8  7.6289702
99.6  7.4185044
99.4  7.6001229
99.2  7.2871177
99  7.1502191
98.8  7.4196819
98.6  7.5201761
98.4  7.5008312
98.2  7.6306437
98  7.6549058
97.8  7.6111446
97.6  7.8298747
97.4  7.6170432
97.2  7.4349836
97  7.3282369
96.8  7.6380659
96.6  7.7871909
96.4  7.1900316
96.2  7.4826858
96  7.3677933
95.8  7.5238822
95.6  7.4645402
95.4  7.5586204
95.2  7.4631135
95  7.2285093
94.8  7.1950298
94.6  7.2816082
94.4  7.2455958
94.2  7.18033
94  7.2920406
93.8  7.4204038
93.6  7.4151131
93.4  6.9458619
93.2  6.9316584
93  6.7829665
92.8  6.9249404
92.6  6.7626237
92.4  6.7121741
92.2  6.7723638
92  7.0275941
91.8  6.8047512
91.6  7.1652559
91.4  6.7297562
91.2  6.7444252
91  6.625587
90.8  6.3747696
90.6  6.3596999
90.4  6.3224827
90.2  6.5069734
90  6.5884135
89.8  6.4217745
89.6  6.2525437
89.4  6.3028266
89.2  6.2874897
89  6.428525
88.8  6.5698887
88.6  6.2284646
88.4  6.2276991
88.2  6.0742068
88  6.3912022
87.8  6.5880126
87.6  6.4421669
87.4  6.433674
87.2  6.0959549
87  6.4084464
86.8  6.378903
86.6  6.6610354
86.4  6.6184198
86.2  6.2003987
86  6.3859658
85.8  6.4452685
85.6  6.464248
85.4  6.386561
85.2  6.2957148
85  6.6588099
84.8  6.3508362
84.6  6.4000214
84.4  6.6221889
84.2  6.1034861
84  6.3604545
83.8  6.4203669
83.6  6.6592128
83.4  6.4525005
83.2  6.5245152
83  6.5847722
82.8  6.4785378
82.6  6.8311147
82.4  6.8711213
82.2  6.8319502
82  7.180287
81.8  7.2806065
81.6  7.336217
81.4  7.6362779
81.2  7.6685549
81  8.0936066
80.8  8.136577
80.6  8.4332018
80.4  9.0309499
80.2  9.0532761
80  9.7251022
79.8  9.9707187
79.6  10.981844
79.4  12.238057
79.2  13.324035
79  14.416784
78.8  15.72383
78.6  17.155024
78.4  18.950623
78.2  20.277114
78  20.652029
77.8  21.005669
77.6  21.002271
77.4  19.977193
77.2  19.917122
77  19.764447
76.8  21.009311
76.6  22.638004
76.4  23.980782
76.2  26.077853
76  27.036205
75.8  28.488567
75.6  27.947208
75.4  27.243334
75.2  25.197343
75  22.168823
74.8  19.126378
74.6  16.124093
74.4  13.51782
74.2  11.799016
74  10.213296
73.8  8.68389
73.6  7.8848377
73.4  7.0209673
73.2  6.0166764
73  5.5447341
72.8  5.2513527
72.6  4.8141911
72.4  4.5091924
72.2  4.2456984
72  4.1317068
71.8  3.9920394
71.6  3.4991249
71.4  3.6240098
71.2  3.439515
71  3.0330824
70.8  3.0743592
70.6  2.975314
70.4  2.826503
70.2  2.8695381
70  2.6188231
69.8  2.3944691
69.6  2.5518975
69.4  2.6592859
69.2  2.6959342
69  2.628807
68.8  2.4243529
68.6  2.3389612
68.4  2.4327267
68.2  2.2026221
68  2.3134011
67.8  2.0645147
67.6  2.1877505
67.4  2.0403263
67.2  2.0607603
67  2.0698695
66.8  2.1160467
66.6  2.1421318
66.4  2.0958506
66.2  2.1132321
66  1.9348433
65.8  1.8970479
65.6  2.0181532
65.4  2.0424976
65.2  1.9726549
65  1.9078087
64.8  2.011777
64.6  2.0337359
64.4  1.8920049
64.2  1.9002951
64  1.8943141
63.8  1.9196949
63.6  1.8539126
63.4  1.8479106
63.2  1.7195724
63  1.7774324
62.8  1.96808
62.6  1.8722233
62.4  1.861403
62.2  1.8275799
62  1.7497726
61.8  1.9926424
61.6  1.8442161
61.4  1.7540297
61.2  1.740207
61  1.8840841
60.8  1.6978407
60.6  1.9042824
60.4  2.0250855
60.2  1.9982566
60  1.8830859
59.8  1.8957098
59.6  1.9372874
59.4  1.6964967
59.2  1.7897336
59  1.7262205
58.8  1.6630448
58.6  1.7168409
58.4  1.7368601
58.2  1.8673094
58  1.7028537
57.8  1.7773045
57.6  1.8833704
57.4  1.7899895
57.2  1.822032
57  1.7888072
56.8  1.8111041
56.6  1.6889938
56.4  1.7740023
56.2  1.8568054
56  1.8527104
55.8  1.7396274
55.6  1.855941
55.4  1.9709015
55.2  1.9930265
55  1.9740647
54.8  2.0360557
54.6  2.096235
54.4  2.0228882
54.2  1.8347726
54  1.7999905
53.8  1.7248976
53.6  1.897733
53.4  1.7235319
53.2  1.6760874
53  1.8192898
52.8  2.0006424
52.6  2.0261492
52.4  1.6131282
52.2  1.7959015
52  1.7476849
51.8  1.835633
51.6  1.8544741
51.4  1.8108943
51.2  1.9111038
51  1.8961877
50.8  1.7238207
50.6  1.7587776
50.4  1.8087988
50.2  1.7017929
50  1.698848
49.8  1.922997
49.6  1.8374503
49.4  1.8325608
49.2  1.8044707
49  1.8194257
48.8  1.9070926
48.6  1.8228388
48.4  1.8880461
48.2  2.0109337
48  1.8512615
47.8  1.7764728
47.6  1.751985
47.4  1.8299118
47.2  1.8936267
47  1.7753024
46.8  1.785664
46.6  1.8989411
46.4  2.0045723
46.2  2.0482512
46  2.4329154
45.8  1.9794565
45.6  1.7467454
45.4  1.9106704
45.2  2.0504083
45  2.0480363
44.8  1.8727114
44.6  1.8117565
44.4  1.8549698
44.2  1.8260874
44  1.8175131
43.8  1.9663315
43.6  1.9517908
43.4  1.8053567
43.2  1.9297627
43  1.9435982
42.8  1.9322669
42.6  2.0615584
42.4  1.9093302
42.2  1.8280228
42  2.0256078
41.8  1.9152166
41.6  1.9497403
41.4  1.841891
41.2  1.6689221
41  1.8482073
40.8  1.7783421
40.6  2.0154839
40.4  1.9185017
40.2  1.8593448
40  1.7962642
39.8  1.8485431
39.6  1.8722988
39.4  1.948328
39.2  1.9030137
39  2.0198745
38.8  1.9624988
38.6  2.0258066
38.4  2.0296314
38.2  2.0212954
38  1.9903731
37.8  2.291119
37.6  2.2237281
37.4  1.9791273
37.2  2.1476362
37  2.0587944
36.8  2.0936527
36.6  2.3175342
36.4  2.0565476
36.2  1.914196
36  2.103399
35.8  2.3107515
35.6  2.0582076
35.4  2.2604264
35.2  2.2648842
35  2.212902
34.8  2.227974
34.6  2.3964654
34.4  2.1481793
34.2  2.2002339
34  2.3655468
33.8  2.3615853
33.6  2.2201275
33.4  2.0888578
33.2  2.0708527
33  2.187281
32.8  2.3461437
32.6  2.3316273
32.4  2.2401188
32.2  2.1715677
32  2.237299
31.8  2.0752082
31.6  2.1548901
31.4  2.0192037
31.2  2.2128947
31  2.0357866
30.8  2.0352279
30.6  2.1812134
30.4  2.1935268
30.2  2.2340678
30  2.1984602
29.8  2.3488396
29.6  2.4160036
29.4  2.4367436
29.2  2.1941108
29  2.1376589
28.8  2.209679
28.6  2.2332946
28.4  2.2741603
28.2  2.4571957
28  2.4535425
27.8  2.293786
27.6  2.3377439
27.4  2.3373297
27.2  2.416737
27  2.2227115
26.8  2.1980801
26.6  2.4316874
26.4  2.4879111
26.2  2.6008068
26  2.4773544
25.8  2.4371098
25.6  2.4618763
25.4  2.5596861
25.2  2.3282786
25  2.4649647
24.8  2.4438037
24.6  2.3014598
24.4  2.4959558
24.2  2.5196899
24  2.3436482
23.8  2.3977411
23.6  2.3416419
23.4  2.583111
23.2  2.452899
23  2.4360811
22.8  2.1968457
22.6  2.4053007
22.4  2.3976193
22.2  2.3337706
22  2.305299
21.8  2.2773499
21.6  2.3608395
21.4  2.297644
21.2  2.1743164
21  2.1902448
20.8  2.2974725
20.6  2.255096
20.4  2.259136
20.2  2.1561835
20  2.2563883
19.8  2.3047791
19.6  2.2907742
19.4  2.3596855
19.2  2.157417
19  2.1133141
18.8  2.1454513
18.6  2.0634584
18.4  2.162321
18.2  2.1191765
18  2.1702254
17.8  2.1461249
17.6  2.2377826
17.4  2.1814962
17.2  2.0026771
17  2.1377678
16.8  2.2015703
16.6  2.0884041
16.4  1.9866014
16.2  2.1293741
16  2.1518756
15.8  2.3425951
15.6  2.2145923
15.4  2.2347172
15.2  2.2646183
15  2.1467318
14.8  2.0925747
14.6  1.9878946
14.4  1.9693532
14.2  2.0913181
14  2.0963901
13.8  1.935817
13.6  2.0503936
13.4  2.0254026
13.2  1.9496081
13  1.9456283
12.8  1.9003856
12.6  1.9620119
12.4  1.9788256
12.2  1.8437911
12  2.0043979
11.8  1.8597196
11.6  1.8177639
11.4  1.9269183
11.2  1.721853
11  1.7916268
10.8  1.888811
10.6  1.6951911
10.4  1.6257348
10.2  2.0239286
10  2.128347
9.8  1.8417518
9.6  1.8435769
9.4  1.7891257
9.2  1.7115177
9  2.0098594
8.8  1.7963891
8.6  1.9283919
8.4  2.083963
8.2  2.2863343
8  2.244874
7.8  2.157634
7.6  2.5038033
7.4  2.4805076
7.2  2.5365335
7  2.5092924
6.8  2.718487
6.6  3.0989072
6.4  3.3700075
6.2  3.6627916
6  4.1356793
5.8  4.5381411
5.6  5.2626088
5.4  6.3121217
5.2  7.3784309
5  7.8805293
4.8  8.2520815
4.6  9.170464
4.4  10.298038
4.2  11.199406
4  12.662689
3.8  13.536018
3.6  14.055748
3.4  14.597016
3.2  13.675297
3  11.932511
2.8  9.4937776
2.6  6.9232066
2.4  4.2165447
2.2  2.6077353
2  1.890561
1.8  1.6155392
1.6  1.3677888
1.4  1.373657
1.2  1.2456029
1  1.2227316
0.8  1.0925309
0.6  0.8414025
0.4  0.71495465
0.2  0.60192945
0  0.56621341
-0.2  0.54527164
-0.4  0.4415297
-0.6  0.5019614
-0.8  0.48808102
-1  0.4762084
-1.2  0.47103729
-1.4  0.44196492
-1.6  0.52127016
-1.8  0.49024352
-2  0.43266348
-2.2  0.53207653
-2.4  0.49710609
-2.6  0.44782594
-2.8  0.41606372
-3  0.45778038
-3.2  0.44861944
-3.4  0.47025501
